Amorphous Ice
      1.20000
Ref: Li & Greenberg 1998, A&A, 331, 291; Aigen Li <agli@strw.leidenuniv.nl> to Wyatt (Apr 27, 2000)
    1181
Wavelength (microns), Re(eps), Im(eps)
      2980.00      3.15684    0.0566365
      2960.00      3.16071    0.0568622
      2940.00      3.16135    0.0570610
      2920.00      3.16085    0.0572514
      2900.00      3.16045    0.0574452
      2880.00      3.16017    0.0576417
      2860.00      3.15985    0.0578397
      2840.00      3.15952    0.0580401
      2820.00      3.15920    0.0582427
      2800.00      3.15888    0.0584473
      2780.00      3.15859    0.0586548
      2760.00      3.15831    0.0588643
      2740.00      3.15802    0.0590760
      2720.00      3.15770    0.0592898
      2700.00      3.15738    0.0595061
      2680.00      3.15709    0.0597248
      2660.00      3.15680    0.0599463
      2640.00      3.15652    0.0601704
      2620.00      3.15620    0.0603965
      2600.00      3.15591    0.0606254
      2580.00      3.15559    0.0608569
      2560.00      3.15534    0.0610918
      2540.00      3.15505    0.0613292
      2520.00      3.15473    0.0615687
      2500.00      3.15441    0.0618114
      2480.00      3.15412    0.0620573
      2460.00      3.15383    0.0623060
      2440.00      3.15351    0.0625579
      2420.00      3.15319    0.0628125
      2400.00      3.15287    0.0630704
      2380.00      3.15254    0.0633318
      2360.00      3.15226    0.0635970
      2340.00      3.15193    0.0638651
      2320.00      3.15161    0.0641363
      2300.00      3.15129    0.0644114
      2280.00      3.15097    0.0646901
      2260.00      3.15065    0.0649722
      2240.00      3.15032    0.0652582
      2220.00      3.15000    0.0655485
      2200.00      3.14968    0.0658423
      2180.00      3.14932    0.0661396
      2160.00      3.14900    0.0664418
      2140.00      3.14864    0.0667479
      2120.00      3.14828    0.0670582
      2100.00      3.14796    0.0673735
      2080.00      3.14760    0.0676930
      2060.00      3.14724    0.0680167
      2040.01      3.14685    0.0683452
      2020.01      3.14649    0.0686792
      2000.01      3.14609    0.0690172
      1980.01      3.14574    0.0693614
      1960.01      3.14538    0.0697100
      1940.01      3.14498    0.0700640
      1920.01      3.14455    0.0704231
      1900.01      3.14419    0.0707887
      1880.01      3.14380    0.0711599
      1860.01      3.14337    0.0715370
      1840.01      3.14294    0.0719197
      1820.01      3.14255    0.0723092
      1800.01      3.14212    0.0727049
      1780.01      3.14169    0.0731073
      1760.01      3.14126    0.0735164
      1740.01      3.14082    0.0739329
      1720.01      3.14039    0.0743565
      1700.01      3.13989    0.0747865
      1680.01      3.13946    0.0752252
      1660.01      3.13900    0.0756718
      1640.01      3.13849    0.0761254
      1620.01      3.13799    0.0765878
      1600.01      3.13753    0.0770594
      1580.01      3.13702    0.0775394
      1560.01      3.13652    0.0780292
      1540.01      3.13598    0.0785276
      1520.01      3.13548    0.0790361
      1500.01      3.13494    0.0795542
      1480.01      3.13441    0.0800832
      1460.01      3.13383    0.0806227
      1440.01      3.13326    0.0811734
      1420.01      3.13269    0.0817353
      1400.01      3.13208    0.0823094
      1380.01      3.13150    0.0828963
      1360.01      3.13089    0.0834956
      1340.01      3.13025    0.0841075
      1320.01      3.12960    0.0847337
      1300.01      3.12899    0.0853748
      1280.01      3.12831    0.0860304
      1260.01      3.12759    0.0867002
      1240.01      3.12691    0.0873873
      1220.01      3.12619    0.0880911
      1200.01      3.12548    0.0888117
      1180.01      3.12476    0.0895516
      1160.01      3.12397    0.0903090
      1140.01      3.12322    0.0910866
      1120.01      3.12239    0.0918841
      1100.01      3.12157    0.0927037
      1080.01      3.12074    0.0935461
      1060.01      3.11984    0.0944111
      1040.01      3.11898    0.0953019
      1020.01      3.11808    0.0962181
      1000.01      3.11715    0.0971606
      995.005      3.11690    0.0974004
      990.005      3.11665    0.0976423
      985.005      3.11640    0.0978860
      980.005      3.11615    0.0981317
      975.005      3.11593    0.0983794
      970.005      3.11568    0.0986287
      965.005      3.11543    0.0988800
      960.005      3.11518    0.0991335
      955.005      3.11493    0.0993887
      950.005      3.11468    0.0996460
      945.005      3.11442    0.0999053
      940.005      3.11417     0.100166
      935.005      3.11389     0.100429
      930.005      3.11363     0.100695
      925.005      3.11338     0.100963
      920.005      3.11313     0.101233
      915.005      3.11284     0.101505
      910.005      3.11256     0.101778
      905.005      3.11231     0.102055
      900.005      3.11205     0.102334
      895.005      3.11177     0.102615
      890.005      3.11148     0.102898
      885.005      3.11119     0.103184
      880.005      3.11091     0.103471
      875.005      3.11062     0.103762
      870.005      3.11033     0.104055
      865.005      3.11004     0.104351
      860.005      3.10976     0.104648
      855.005      3.10947     0.104949
      850.005      3.10915     0.105252
      845.005      3.10886     0.105559
      840.005      3.10857     0.105867
      835.005      3.10825     0.106179
      830.005      3.10796     0.106493
      825.005      3.10767     0.106810
      820.005      3.10735     0.107130
      815.005      3.10706     0.107453
      810.005      3.10674     0.107779
      805.005      3.10642     0.108108
      800.005      3.10606     0.108439
      795.005      3.10574     0.108774
      790.005      3.10545     0.109113
      785.005      3.10512     0.109454
      780.005      3.10477     0.109798
      775.005      3.10444     0.110146
      770.005      3.10412     0.110497
      765.005      3.10376     0.110851
      760.005      3.10340     0.111209
      755.005      3.10304     0.111570
      750.005      3.10272     0.111936
      745.005      3.10236     0.112305
      740.005      3.10204     0.112678
      735.005      3.10164     0.113053
      730.005      3.10128     0.113433
      725.005      3.10092     0.113817
      720.005      3.10053     0.114205
      715.005      3.10017     0.114597
      710.005      3.09977     0.114992
      705.005      3.09941     0.115393
      700.005      3.09902     0.115797
      695.005      3.09862     0.116206
      690.005      3.09826     0.116619
      685.005      3.09787     0.117037
      680.005      3.09747     0.117459
      675.005      3.09704     0.117885
      670.005      3.09665     0.118317
      665.005      3.09625     0.118753
      660.005      3.09582     0.119194
      655.005      3.09539     0.119640
      650.005      3.09496     0.120091
      645.005      3.09453     0.120547
      640.005      3.09409     0.121009
      635.005      3.09366     0.121476
      630.005      3.09323     0.121949
      625.005      3.09276     0.122427
      620.005      3.09230     0.122911
      615.005      3.09187     0.123401
      610.005      3.09143     0.123897
      605.005      3.09097     0.124399
      600.005      3.09046     0.124906
      595.005      3.09000     0.125420
      590.005      3.08953     0.125941
      585.005      3.08902     0.126468
      580.005      3.08852     0.127002
      575.005      3.08805     0.127544
      570.005      3.08755     0.128092
      565.005      3.08704     0.128647
      560.005      3.08654     0.129210
      555.005      3.08600     0.129779
      550.005      3.08546     0.130357
      545.005      3.08492     0.130942
      540.005      3.08442     0.131537
      535.005      3.08384     0.132138
      530.005      3.08330     0.132748
      525.005      3.08273     0.133367
      520.005      3.08219     0.133995
      515.005      3.08161     0.134632
      510.005      3.08103     0.135277
      505.005      3.08046     0.135933
      500.005      3.07985     0.136598
      495.005      3.07923     0.137273
      490.005      3.07862     0.137958
      485.005      3.07804     0.138655
      480.005      3.07739     0.139361
      475.005      3.07678     0.140079
      470.005      3.07613     0.140807
      465.005      3.07548     0.141548
      460.005      3.07484     0.142300
      455.005      3.07415     0.143064
      450.005      3.07350     0.143842
      445.005      3.07282     0.144633
      440.005      3.07213     0.145436
      435.005      3.07141     0.146253
      430.005      3.07072     0.147085
      425.005      3.07000     0.147931
      420.005      3.06928     0.148792
      415.005      3.06852     0.149667
      410.005      3.06780     0.150560
      405.005      3.06704     0.151468
      400.005      3.06625     0.152393
      395.005      3.06549     0.153336
      390.005      3.06469     0.154296
      385.005      3.06389     0.155275
      380.005      3.06310     0.156274
      375.005      3.06227     0.157291
      370.005      3.06143     0.158330
      365.005      3.06060     0.159390
      360.005      3.05977     0.160472
      355.005      3.05886     0.161575
      350.005      3.05799     0.162703
      345.005      3.05712     0.163855
      340.005      3.05621     0.165032
      335.005      3.05531     0.166235
      330.005      3.05440     0.167466
      325.005      3.05345     0.168724
      320.005      3.05251     0.170012
      315.005      3.05156     0.171330
      310.005      3.05055     0.172678
      305.005      3.04960     0.174062
      300.005      3.04858     0.175479
      295.005      3.04763     0.176933
      290.005      3.04657     0.178422
      285.005      3.04558     0.179953
      280.005      3.04452     0.181522
      275.005      3.04349     0.183135
      270.005      3.04243     0.184792
      265.005      3.04140     0.186497
      260.005      3.04037     0.188252
      255.005      3.03930     0.190057
      250.005      3.03823     0.191917
      245.005      3.03719     0.193834
      240.005      3.03615     0.195811
      235.005      3.03511     0.197851
      230.005      3.03406     0.199958
      225.005      3.03305     0.202136
      220.005      3.03206     0.204390
      215.005      3.03111     0.206723
      210.005      3.03019     0.209141
      205.005      3.02927     0.211647
      200.005      3.02848     0.214251
      195.005      3.02772     0.216957
      190.005      3.02706     0.219773
      185.005      3.02650     0.222706
      180.005      3.02608     0.225766
      175.005      3.02582     0.228963
      170.005      3.02576     0.232308
      165.005      3.02597     0.235816
      160.005      3.02649     0.239498
      155.005      3.02742     0.243374
      150.005      3.02882     0.247461
      145.005      3.03084     0.251781
      140.005      3.03369     0.256366
      135.005      3.03757     0.261246
      130.005      3.04290     0.266464
      125.005      3.05022     0.272078
      120.005      3.06001     0.278142
      115.005      3.07516     0.284846
      110.005      3.09241     0.292061
      105.005      3.14274     0.301420
      100.005      3.15797     0.306976
      99.5050      3.17492     0.292133
      99.0050      3.20298     0.280528
      98.5050      3.24013     0.276489
      98.0050      3.28323     0.285824
      97.5050      3.32844     0.315112
      97.0050      3.36810     0.366130
      96.5050      3.39005     0.432745
      96.0050      3.38571     0.505879
      95.5050      3.35534     0.577136
      95.0050      3.30321     0.635996
      94.5050      3.23481     0.667984
      94.0050      3.16029     0.665789
      93.5050      3.09635     0.636888
      93.0050      3.05521     0.591796
      92.5050      3.03734     0.536955
      92.0050      3.04015     0.480747
      91.5050      3.06301     0.436408
      91.0050      3.10112     0.412302
      90.5050      3.14186     0.405963
      90.0050      3.17551     0.412795
      89.5050      3.20159     0.429993
      89.0050      3.21999     0.452772
      88.5050      3.22841     0.474581
      88.0050      3.22918     0.491510
      87.5050      3.22926     0.503311
      87.0050      3.23197     0.511416
      86.5050      3.23626     0.518106
      86.0050      3.24268     0.525146
      85.5050      3.25215     0.533607
      85.0050      3.26292     0.544969
      84.5050      3.27253     0.560165
      84.0050      3.28049     0.577865
      83.5050      3.28674     0.596664
      83.0050      3.29091     0.616529
      82.5050      3.29310     0.637006
      82.0050      3.29373     0.656995
      81.5050      3.29336     0.676523
      81.0050      3.29242     0.696383
      80.5050      3.29075     0.716657
      80.0050      3.28815     0.737355
      79.5050      3.28463     0.758877
      79.0050      3.27970     0.781319
      78.5050      3.27259     0.804348
      78.0050      3.26310     0.827375
      77.5050      3.25139     0.849740
      77.0050      3.23752     0.871126
      76.5050      3.22171     0.891028
      76.0050      3.20449     0.908759
      75.5050      3.18643     0.924334
      75.0050      3.16809     0.938085
      74.5050      3.14968     0.950087
      74.0050      3.13143     0.960466
      73.5050      3.11376     0.969452
      73.0050      3.09637     0.977465
      72.5050      3.07916     0.984568
      72.0050      3.06226     0.990324
      71.5050      3.04606     0.994804
      71.0050      3.03075     0.998131
      70.5050      3.01624      1.00021
      70.0050      3.00357      1.00096
      69.5050      2.99369      1.00098
      69.0050      2.98653      1.00189
      68.5050      2.98153      1.00454
      68.0050      2.97823      1.00953
      67.5050      2.97630      1.01767
      67.0050      2.97386      1.02991
      66.5050      2.96902      1.04591
      66.0050      2.96100      1.06379
      65.5050      2.94962      1.08263
      65.0050      2.93466      1.10161
      64.5050      2.91614      1.11963
      64.0050      2.89485      1.13529
      63.5050      2.87182      1.14830
      63.0050      2.84779      1.15875
      62.5050      2.82324      1.16652
      62.0050      2.79880      1.17168
      61.5050      2.77507      1.17427
      61.0050      2.75274      1.17451
      60.5050      2.73256      1.17302
      60.0050      2.71484      1.17077
      59.5050      2.69956      1.16851
      59.0050      2.68659      1.16696
      58.5050      2.67558      1.16681
      58.0050      2.66609      1.16879
      57.5050      2.65741      1.17330
      57.0050      2.64884      1.18055
      56.5050      2.63957      1.19070
      56.0050      2.62890      1.20364
      55.5050      2.61639      1.21923
      55.0050      2.60045      1.23803
      54.5050      2.57948      1.25841
      54.0050      2.55331      1.27838
      53.5050      2.52257      1.29652
      53.0050      2.48749      1.31205
      52.5050      2.44853      1.32358
      52.0050      2.40789      1.32863
      51.5050      2.36911      1.32892
      51.0050      2.33224      1.32700
      50.5050      2.29691      1.32387
      50.0050      2.26268      1.31990
      49.5050      2.23003      1.31671
      49.0050      2.19607      1.31639
      48.5050      2.15729      1.31684
      48.0050      2.11373      1.31466
      47.5050      2.06671      1.30788
      47.0050      2.01660      1.29685
      46.5050      1.96184      1.27714
      46.0050      1.91049      1.24206
      45.5050      1.87317      1.19989
      45.0050      1.84661      1.15981
      44.5050      1.82626      1.12675
      44.0050      1.80818      1.09058
      43.5050      1.81821      1.07299
      43.0050      1.79082      1.11497
      42.5050      1.68421      1.12539
      42.0050      1.57937      1.04906
      41.5050      1.52923     0.933820
      41.0050      1.53344     0.825713
      40.5050      1.56418     0.758956
      40.0050      1.57606     0.722532
      39.5050      1.57750     0.673484
      39.0050      1.59439     0.628576
      38.5050      1.60089     0.600461
      38.0050      1.60188     0.561162
      37.5050      1.60653     0.522247
      37.0050      1.61536     0.481357
      36.5050      1.62361     0.446663
      36.0050      1.63191     0.405358
      35.5050      1.64796     0.366568
      35.0050      1.66322     0.332167
      34.5050      1.68127     0.296782
      34.0050      1.69888     0.267496
      33.5050      1.71232     0.233890
      33.0050      1.73312     0.195256
      32.5050      1.75867     0.161447
      32.0050      1.78669     0.128150
      31.5050      1.81745    0.0971932
      31.0050      1.85242    0.0670845
      30.5050      1.89008    0.0376794
      30.0050      1.94174    0.0109813
      29.5050      1.99612   0.00319423
      29.0050      2.04227   0.00354009
      28.5050      2.08652   0.00307928
      28.0050      2.13152    0.0138402
      27.5050      2.17023    0.0218868
      27.0050      2.21173    0.0367890
      26.5050      2.24820    0.0611266
      26.0050      2.27429    0.0867084
      25.5050      2.29966     0.103999
      25.0050      2.32815     0.129712
      24.9550      2.33070     0.132751
      24.9050      2.33314     0.135860
      24.8550      2.33544     0.139044
      24.8050      2.33764     0.142285
      24.7550      2.33971     0.145547
      24.7050      2.34172     0.148806
      24.6550      2.34367     0.152037
      24.6050      2.34559     0.155215
      24.5550      2.34752     0.158313
      24.5050      2.34935     0.161333
      24.4550      2.35112     0.164273
      24.4050      2.35280     0.167131
      24.3550      2.35436     0.169910
      24.3050      2.35577     0.172602
      24.2550      2.35706     0.175232
      24.2050      2.35831     0.177812
      24.1550      2.35954     0.180353
      24.1050      2.36080     0.182867
      24.0550      2.36215     0.185412
      24.0050      2.36359     0.187935
      23.9550      2.36509     0.190405
      23.9050      2.36676     0.192816
      23.8550      2.36851     0.195159
      23.8050      2.37040     0.197346
      23.7550      2.37238     0.199488
      23.7050      2.37441     0.201702
      23.6550      2.37648     0.204060
      23.6050      2.37850     0.206620
      23.5550      2.38044     0.209563
      23.5050      2.38231     0.212798
      23.4550      2.38417     0.216171
      23.4050      2.38600     0.219597
      23.3550      2.38789     0.223000
      23.3050      2.38985     0.226158
      23.2550      2.39185     0.229150
      23.2050      2.39382     0.232137
      23.1550      2.39569     0.235194
      23.1050      2.39743     0.238391
      23.0550      2.39893     0.241948
      23.0050      2.40023     0.245749
      22.9550      2.40140     0.249633
      22.9050      2.40247     0.253510
      22.8550      2.40342     0.257288
      22.8050      2.40442     0.260730
      22.7550      2.40543     0.263967
      22.7050      2.40638     0.267103
      22.6550      2.40730     0.270202
      22.6050      2.40815     0.273327
      22.5550      2.40889     0.276711
      22.5050      2.40960     0.280151
      22.4550      2.41040     0.283580
      22.4050      2.41126     0.286939
      22.3550      2.41226     0.290162
      22.3050      2.41352     0.293081
      22.2550      2.41481     0.295951
      22.2050      2.41610     0.298864
      22.1550      2.41732     0.301912
      22.1050      2.41827     0.305239
      22.0550      2.41894     0.308929
      22.0050      2.41954     0.312810
      21.9550      2.42013     0.316821
      21.9050      2.42080     0.320893
      21.8550      2.42172     0.324873
      21.8050      2.42287     0.328786
      21.7550      2.42408     0.332705
      21.7050      2.42519     0.336645
      21.6550      2.42616     0.340651
      21.6050      2.42678     0.344793
      21.5550      2.42714     0.349016
      21.5050      2.42734     0.353314
      21.4550      2.42740     0.357665
      21.4050      2.42735     0.362057
      21.3550      2.42731     0.366455
      21.3050      2.42717     0.370782
      21.2550      2.42701     0.374997
      21.2050      2.42679     0.379067
      21.1550      2.42649     0.382879
      21.1050      2.42613     0.386577
      21.0550      2.42575     0.390261
      21.0050      2.42535     0.394006
      20.9550      2.42491     0.397933
      20.9050      2.42441     0.402111
      20.8550      2.42393     0.406428
      20.8050      2.42343     0.410836
      20.7550      2.42293     0.415281
      20.7050      2.42246     0.419650
      20.6550      2.42196     0.423992
      20.6050      2.42133     0.428319
      20.5550      2.42054     0.432647
      20.5050      2.41955     0.436993
      20.4550      2.41831     0.441367
      20.4050      2.41684     0.445792
      20.3550      2.41517     0.450264
      20.3050      2.41324     0.454769
      20.2550      2.41111     0.459312
      20.2050      2.40883     0.463788
      20.1550      2.40652     0.468129
      20.1050      2.40418     0.472243
      20.0550      2.40203     0.476132
      20.0050      2.39983     0.479641
      19.9550      2.39749     0.482684
      19.9050      2.39494     0.485238
      19.8550      2.39192     0.487152
      19.8050      2.38863     0.488647
      19.7550      2.38543     0.490196
      19.7050      2.38260     0.492097
      19.6550      2.38048     0.494726
      19.6050      2.37926     0.498294
      19.5550      2.37827     0.502159
      19.5050      2.37718     0.505973
      19.4550      2.37560     0.509340
      19.4050      2.37293     0.511779
      19.3550      2.37011     0.513465
      19.3050      2.36757     0.514454
      19.2550      2.36564     0.514914
      19.2050      2.36531     0.514800
      19.1550      2.36551     0.514894
      19.1050      2.36578     0.515642
      19.0550      2.36572     0.517389
      19.0050      2.36432     0.521006
      18.9550      2.36224     0.525393
      18.9050      2.35972     0.529809
      18.8550      2.35714     0.533648
      18.8050      2.35497     0.535640
      18.7550      2.35330     0.536609
      18.7050      2.35215     0.537129
      18.6550      2.35152     0.537699
      18.6050      2.35165     0.539330
      18.5550      2.35192     0.541594
      18.5050      2.35191     0.544219
      18.4550      2.35134     0.546984
      18.4050      2.34935     0.549369
      18.3550      2.34700     0.551574
      18.3050      2.34494     0.553661
      18.2550      2.34370     0.555686
      18.2050      2.34458     0.557841
      18.1550      2.34613     0.560022
      18.1050      2.34775     0.562231
      18.0550      2.34868     0.564459
      18.0050      2.34767     0.566630
      17.9550      2.34610     0.568998
      17.9050      2.34447     0.571662
      17.8550      2.34362     0.574771
      17.8050      2.34418     0.578413
      17.7550      2.34514     0.582153
      17.7050      2.34598     0.585752
      17.6550      2.34591     0.588865
      17.6050      2.34477     0.591472
      17.5550      2.34339     0.594023
      17.5050      2.34213     0.596793
      17.4550      2.34183     0.600184
      17.4050      2.34214     0.604204
      17.3550      2.34257     0.608734
      17.3050      2.34269     0.613613
      17.2550      2.34180     0.618851
      17.2050      2.34070     0.623872
      17.1550      2.33983     0.628376
      17.1050      2.33973     0.631980
      17.0550      2.34073     0.634623
      17.0050      2.34202     0.637659
      16.9550      2.34313     0.641829
      16.9050      2.34333     0.648449
      16.8550      2.34268     0.656677
      16.8050      2.34152     0.665067
      16.7550      2.34007     0.672524
      16.7050      2.33881     0.677359
      16.6550      2.33753     0.681075
      16.6050      2.33623     0.684404
      16.5550      2.33486     0.688488
      16.5050      2.33336     0.693786
      16.4550      2.33176     0.700004
      16.4050      2.33004     0.706980
      16.3550      2.32818     0.714383
      16.3050      2.32631     0.721945
      16.2550      2.32451     0.729376
      16.2050      2.32290     0.736374
      16.1550      2.32147     0.742901
      16.1050      2.32017     0.749193
      16.0550      2.31895     0.755495
      16.0050      2.31778     0.762083
      15.9550      2.31622     0.769208
      15.9050      2.31403     0.777054
      15.8550      2.31087     0.785860
      15.8050      2.30694     0.795365
      15.7550      2.30276     0.805145
      15.7050      2.29880     0.814780
      15.6550      2.29531     0.823943
      15.6050      2.29144     0.833183
      15.5550      2.28661     0.842713
      15.5050      2.27996     0.853059
      15.4550      2.27237     0.863437
      15.4050      2.26440     0.873268
      15.3550      2.25707     0.881803
      15.3050      2.25015     0.889061
      15.2550      2.24309     0.895493
      15.2050      2.23532     0.901679
      15.1550      2.22679     0.907921
      15.1050      2.21874     0.913356
      15.0550      2.21202     0.917802
      15.0050      2.20727     0.920558
      14.9550      2.20475     0.925906
      14.9050      2.20404     0.936088
      14.8550      2.20534     0.954882
      14.8050      2.20448     0.976832
      14.7550      2.19841     0.997497
      14.7050      2.18342      1.01085
      14.6550      2.16274      1.01869
      14.6050      2.14074      1.02433
      14.5550      2.12246      1.03196
      14.5050      2.10822      1.04187
      14.4550      2.09566      1.05216
      14.4050      2.08230      1.06096
      14.3550      2.06731      1.06786
      14.3050      2.05147      1.07401
      14.2550      2.03540      1.08035
      14.2050      2.01940      1.08720
      14.1550      2.00308      1.09395
      14.1050      1.98620      1.10013
      14.0550      1.96869      1.10541
      14.0050      1.95066      1.10990
      13.9550      1.93230      1.11364
      13.9050      1.91364      1.11677
      13.8550      1.89471      1.11956
      13.8050      1.87551      1.12235
      13.7550      1.85619      1.12497
      13.7050      1.83701      1.12667
      13.6550      1.81830      1.12670
      13.6050      1.79970      1.12558
      13.5550      1.78050      1.12491
      13.5050      1.75997      1.12620
      13.4550      1.73823      1.12834
      13.4050      1.71577      1.12877
      13.3550      1.69317      1.12501
      13.3050      1.67136      1.11804
      13.2550      1.65110      1.10989
      13.2050      1.63317      1.10272
      13.1550      1.61552      1.09709
      13.1050      1.59640      1.09307
      13.0550      1.57389      1.09050
      13.0050      1.54996      1.08621
      12.9550      1.52622      1.07770
      12.9050      1.50419      1.06398
      12.8550      1.48399      1.04886
      12.8050      1.46566      1.03579
      12.7550      1.44842      1.02531
      12.7050      1.43093      1.01515
      12.6550      1.41189      1.00290
      12.6050      1.39218     0.988744
      12.5550      1.37308     0.973377
      12.5050      1.35592     0.957646
      12.4550      1.33976     0.941561
      12.4050      1.32383     0.925256
      12.3550      1.30781     0.908656
      12.3050      1.29207     0.891461
      12.2550      1.27700     0.873310
      12.2050      1.26256     0.854536
      12.1550      1.24869     0.835569
      12.1050      1.23531     0.816670
      12.0550      1.22248     0.797028
      12.0050      1.21023     0.775957
      11.9550      1.19865     0.753755
      11.9050      1.18787     0.731301
      11.8550      1.17804     0.709441
      11.8050      1.16907     0.687432
      11.7550      1.16086     0.664620
      11.7050      1.15347     0.640843
      11.6550      1.14702     0.616489
      11.6050      1.14174     0.592024
      11.5550      1.13765     0.567552
      11.5050      1.13479     0.543204
      11.4550      1.13303     0.519062
      11.4050      1.13221     0.495188
      11.3550      1.13214     0.471580
      11.3050      1.13269     0.448144
      11.2550      1.13376     0.424782
      11.2050      1.13551     0.401444
      11.1550      1.13826     0.378130
      11.1050      1.14217     0.354860
      11.0550      1.14701     0.331704
      11.0050      1.15257     0.308781
      10.9550      1.15902     0.286132
      10.9050      1.16671     0.263805
      10.8550      1.17561     0.241943
      10.8050      1.18540     0.220792
      10.7550      1.19592     0.200493
      10.7050      1.20734     0.180767
      10.6550      1.21976     0.161351
      10.6050      1.23320     0.142905
      10.5550      1.24768     0.126133
      10.5050      1.26257     0.110761
      10.4550      1.27693    0.0959427
      10.4050      1.29101    0.0813617
      10.3550      1.30658    0.0675258
      10.3050      1.32471    0.0549774
      10.2550      1.34329    0.0440961
      10.2050      1.36007    0.0352126
      10.1550      1.37628    0.0280979
      10.1050      1.39342    0.0222891
      10.0550      1.41039    0.0177743
      10.0050      1.42534    0.0146605
      9.95500      1.43842    0.0120702
      9.90500      1.45107   0.00865332
      9.85500      1.46419   0.00458634
      9.80500      1.47785   0.00154598
      9.75500      1.49157  0.000311705
      9.70500      1.50428  0.000105840
      9.65500      1.51543  0.000189245
      9.60500      1.52564  0.000311436
      9.55500      1.53552  0.000320429
      9.50500      1.54497  0.000270783
      9.45500      1.55399  0.000265416
      9.40500      1.56265  0.000277268
      9.35500      1.57104  0.000281140
      9.30500      1.57917  0.000274854
      9.25500      1.58710  0.000256886
      9.20500      1.59479  0.000301892
      9.15500      1.60230  0.000406126
      9.10500      1.60975  0.000223341
      9.05500      1.61735 -0.000120489
      9.00500      1.62534  0.000539630
      8.95500      1.63333   0.00252266
      8.90500      1.63983   0.00457869
      8.85500      1.64472   0.00572651
      8.80500      1.64986   0.00575062
      8.75500      1.65611   0.00540866
      8.70500      1.66301   0.00616814
      8.65500      1.66946   0.00804656
      8.60500      1.67437   0.00989566
      8.55500      1.67854    0.0110110
      8.50500      1.68346    0.0112171
      8.45500      1.68902    0.0112829
      8.40500      1.69461    0.0120735
      8.35500      1.70026    0.0135184
      8.30500      1.70571    0.0154013
      8.25500      1.70990    0.0177260
      8.20500      1.71329    0.0194952
      8.15500      1.71743    0.0192695
      8.10500      1.72260    0.0190835
      8.05500      1.72818    0.0216794
      8.00500      1.73269    0.0248549
      7.95500      1.73578    0.0268420
      7.90500      1.73914    0.0283083
      7.85500      1.74309    0.0298208
      7.80500      1.74659    0.0316210
      7.75500      1.75001    0.0334815
      7.70500      1.75357    0.0352478
      7.65500      1.75667    0.0373748
      7.60500      1.75957    0.0394145
      7.55500      1.76285    0.0405949
      7.50500      1.76657    0.0426533
      7.45500      1.76985    0.0461314
      7.40500      1.77106    0.0491109
      7.35500      1.77213    0.0505737
      7.30500      1.77516    0.0511327
      7.25500      1.77835    0.0534984
      7.20500      1.78030    0.0570315
      7.15500      1.78123    0.0589740
      7.10500      1.78255    0.0599618
      7.05500      1.78488    0.0610086
      7.00500      1.78763    0.0626778
      6.95500      1.79011    0.0650766
      6.90500      1.79210    0.0676553
      6.85500      1.79393    0.0697612
      6.80500      1.79614    0.0720430
      6.75500      1.79839    0.0748798
      6.70500      1.80009    0.0780171
      6.65500      1.80180    0.0809024
      6.60500      1.80385    0.0839886
      6.55500      1.80599    0.0879688
      6.50500      1.80752    0.0925737
      6.45500      1.80871    0.0973039
      6.40500      1.80981     0.102295
      6.35500      1.81086     0.108070
      6.30500      1.81192     0.113904
      6.25500      1.81545     0.120848
      6.20500      1.82007     0.134612
      6.15500      1.81698     0.160664
      6.10500      1.79620     0.186903
      6.05500      1.76315     0.200352
      6.00500      1.72863     0.198819
      5.95500      1.69650     0.187587
      5.90500      1.66698     0.164446
      5.85500      1.64809     0.129543
      5.80500      1.64531    0.0914614
      5.75500      1.65556    0.0604284
      5.70500      1.67144    0.0389495
      5.65500      1.68816    0.0260209
      5.60500      1.70245    0.0182769
      5.55500      1.71474    0.0124741
      5.50500      1.72651   0.00809984
      5.45500      1.73741   0.00602780
      5.40500      1.74644   0.00508012
      5.35500      1.75440   0.00391865
      5.30500      1.76233   0.00301618
      5.25500      1.76991   0.00296645
      5.20500      1.77667   0.00339399
      5.15500      1.78281   0.00375320
      5.10500      1.78880   0.00373269
      5.05500      1.79544   0.00346940
      5.00500      1.80308   0.00430327
      4.95500      1.81063   0.00744577
      4.90500      1.81633    0.0118605
      4.85500      1.82063    0.0155923
      4.80500      1.82475    0.0190501
      4.75500      1.82870    0.0231844
      4.70500      1.83183    0.0284022
      4.65500      1.83294    0.0345231
      4.60500      1.83139    0.0399997
      4.55500      1.82749    0.0429125
      4.50500      1.82285    0.0420650
      4.45500      1.82026    0.0375162
      4.40500      1.82144    0.0317508
      4.35500      1.82512    0.0275582
      4.30500      1.82933    0.0247856
      4.25500      1.83357    0.0223737
      4.20500      1.83817    0.0199854
      4.15500      1.84333    0.0175097
      4.10500      1.84930    0.0151416
      4.05500      1.85597    0.0131675
      4.00500      1.86310    0.0113446
      3.95500      1.87106   0.00933681
      3.90500      1.88032   0.00756165
      3.85500      1.89059   0.00649185
      3.80500      1.90153   0.00560635
      3.75500      1.91404   0.00434391
      3.70500      1.92904   0.00346283
      3.65500      1.94639   0.00382796
      3.60500      1.96583   0.00513582
      3.55500      1.98815   0.00677884
      3.50500      2.01548   0.00822568
      3.45500      2.05007    0.0105807
      3.40500      2.09738    0.0124034
      3.35500      2.17192    0.0200659
      3.30500      2.28360    0.0647258
      3.25500      2.41627     0.183165
      3.20500      2.50806     0.423467
      3.15500      2.46816     0.749090
      3.10500      2.20555      1.05149
      3.05500      1.83877      1.15962
      3.00500      1.46733      1.08699
      2.95500      1.18750     0.856541
      2.90500      1.07839     0.578506
      2.85500      1.03458     0.269793
      2.80500      1.23574    0.0482841
      2.75500      1.36588    0.0276564
      2.70500      1.44558   0.00961133
      2.65500      1.49686    0.0109925
      2.60500      1.53314   0.00291418
      2.55500      1.56563  0.000744624
      2.50500      1.59020   0.00157446
      2.45500      1.60909   0.00165865
      2.40500      1.62489   0.00155698
      2.35500      1.63840   0.00136766
      2.30500      1.65027   0.00133247
      2.25500      1.66067   0.00165027
      2.20500      1.66965   0.00219943
      2.15500      1.67741   0.00276240
      2.10500      1.68426   0.00352342
      2.05500      1.68981   0.00459429
      2.00500      1.69374   0.00507387
      1.95500      1.69721   0.00388288
      1.90500      1.70177   0.00210846
      1.85500      1.70686   0.00118193
      1.80500      1.71157   0.00103404
      1.75500      1.71563   0.00115775
      1.70500      1.71917   0.00133149
      1.65500      1.72239   0.00138318
      1.60500      1.72541   0.00144668
      1.55500      1.72809   0.00170907
      1.50500      1.73017   0.00175491
      1.45500      1.73222   0.00116079
      1.40500      1.73470  0.000387548
      1.35500      1.73749  4.38300e-05
      1.30500      1.74000  2.31265e-05
      1.25500      1.74229  3.09066e-05
      1.20500      1.74446  2.69896e-05
      1.15500      1.74655  1.61079e-05
      1.10500      1.74858  5.05488e-06
      1.05500      1.75062  4.73594e-06
      1.00500      1.75263  7.17855e-06
      1.00000      1.75282  7.47790e-06
     0.995000      1.75303  7.76268e-06
     0.990000      1.75321  8.06805e-06
     0.985000      1.75343  8.42636e-06
     0.980000      1.75361  8.81557e-06
     0.975000      1.75382  9.17216e-06
     0.970000      1.75404  9.32677e-06
     0.965000      1.75425  9.06527e-06
     0.960000      1.75443  8.44562e-06
     0.955000      1.75464  7.79826e-06
     0.950000      1.75486  7.26927e-06
     0.945000      1.75507  6.72885e-06
     0.940000      1.75528  6.11319e-06
     0.935000      1.75549  5.48908e-06
     0.930000      1.75568  4.89038e-06
     0.925000      1.75589  4.30196e-06
     0.920000      1.75610  3.70451e-06
     0.915000      1.75631  3.08306e-06
     0.910000      1.75655  2.44411e-06
     0.905000      1.75674  1.81656e-06
     0.900000      1.75695  1.31497e-06
     0.895000      1.75716  1.11095e-06
     0.890000      1.75740  1.14015e-06
     0.885000      1.75761  1.14512e-06
     0.880000      1.75785  1.06624e-06
     0.875000      1.75806  9.96328e-07
     0.870000      1.75828  9.48307e-07
     0.865000      1.75849  8.98008e-07
     0.860000      1.75873  8.43410e-07
     0.855000      1.75894  7.86517e-07
     0.850000      1.75918  7.35071e-07
     0.845000      1.75939  6.93864e-07
     0.840000      1.75963  6.57631e-07
     0.835000      1.75987  6.21422e-07
     0.830000      1.76011  5.83412e-07
     0.825000      1.76032  5.44814e-07
     0.820000      1.76056  5.08418e-07
     0.815000      1.76082  4.71042e-07
     0.810000      1.76106  4.30023e-07
     0.805000      1.76130  3.88730e-07
     0.800000      1.76154  3.57556e-07
     0.795000      1.76180  3.52003e-07
     0.790000      1.76204  3.63487e-07
     0.785000      1.76231  3.69998e-07
     0.780000      1.76255  3.71755e-07
     0.775000      1.76281  3.74358e-07
     0.770000      1.76308  3.79823e-07
     0.765000      1.76332  3.88793e-07
     0.760000      1.76358  3.98790e-07
     0.755000      1.76385  4.03437e-07
     0.750000      1.76414  3.95390e-07
     0.745000      1.76441  3.69504e-07
     0.740000      1.76467  3.34879e-07
     0.735000      1.76497  3.03466e-07
     0.730000      1.76526  2.73217e-07
     0.725000      1.76555  2.42407e-07
     0.720000      1.76584  2.11427e-07
     0.715000      1.76613  1.81047e-07
     0.710000      1.76643  1.49317e-07
     0.705000      1.76675  1.14102e-07
     0.700000      1.76707  8.84690e-08
     0.695000      1.76736  7.84781e-08
     0.690000      1.76768  7.63103e-08
     0.685000      1.76800  7.30946e-08
     0.680000      1.76834  6.64993e-08
     0.675000      1.76869  6.09218e-08
     0.670000      1.76903  5.58932e-08
     0.665000      1.76935  5.06845e-08
     0.660000      1.76972  4.51906e-08
     0.655000      1.77007  3.92935e-08
     0.650000      1.77044  3.46589e-08
     0.645000      1.77082  3.24230e-08
     0.640000      1.77119  3.13292e-08
     0.635000      1.77156  2.99906e-08
     0.630000      1.77196  2.82225e-08
     0.625000      1.77236  2.66048e-08
     0.620000      1.77276  2.50278e-08
     0.615000      1.77319  2.34448e-08
     0.610000      1.77361  2.18392e-08
     0.605000      1.77406  2.02236e-08
     0.600000      1.77449  1.86515e-08
     0.595000      1.77494  1.71647e-08
     0.590000      1.77540  1.57211e-08
     0.585000      1.77588  1.42644e-08
     0.580000      1.77633  1.27953e-08
     0.575000      1.77684  1.13194e-08
     0.570000      1.77734  9.86943e-09
     0.565000      1.77788  8.45501e-09
     0.560000      1.77838  6.92763e-09
     0.555000      1.77892  5.26579e-09
     0.550000      1.77948  4.01178e-09
     0.545000      1.78006  3.61155e-09
     0.540000      1.78065  3.61502e-09
     0.535000      1.78126  3.49863e-09
     0.530000      1.78185  3.25890e-09
     0.525000      1.78249  3.06219e-09
     0.520000      1.78313  2.88460e-09
     0.515000      1.78380  2.70398e-09
     0.510000      1.78450  2.51116e-09
     0.505000      1.78519  2.29927e-09
     0.500000      1.78591  2.13926e-09
     0.495000      1.78666  2.08630e-09
     0.490000      1.78746  2.08458e-09
     0.485000      1.78824  2.06608e-09
     0.480000      1.78907  2.03344e-09
     0.475000      1.78992  2.00197e-09
     0.470000      1.79081  1.98071e-09
     0.465000      1.79169  1.98272e-09
     0.460000      1.79263  1.91898e-09
     0.455000      1.79362  1.80705e-09
     0.450000      1.79461  1.91410e-09
     0.445000      1.79565  2.38898e-09
     0.440000      1.79673  3.08385e-09
     0.435000      1.79785  3.74322e-09
     0.430000      1.79901  4.34301e-09
     0.425000      1.80021  4.95741e-09
     0.420000      1.80142  5.58120e-09
     0.415000      1.80274  6.23212e-09
     0.410000      1.80408  6.81804e-09
     0.405000      1.80548  7.33424e-09
     0.400000      1.80693  8.09997e-09
     0.395000      1.80846  9.29376e-09
     0.390000      1.81005  1.07588e-08
     0.385000      1.81172  1.21372e-08
     0.380000      1.81344  1.34696e-08
     0.375000      1.81527  1.47849e-08
     0.370000      1.81716  1.61767e-08
     0.365000      1.81915  1.77808e-08
     0.360000      1.82123  1.88535e-08
     0.355000      1.82342  1.93080e-08
     0.350000      1.82571  2.17968e-08
     0.345000      1.82815  2.81867e-08
     0.340000      1.83069  3.66755e-08
     0.335000      1.83337  4.44468e-08
     0.330000      1.83619  5.19695e-08
     0.325000      1.83920  5.96433e-08
     0.320000      1.84237  6.73273e-08
     0.315000      1.84577  7.49537e-08
     0.310000      1.84933  8.26844e-08
     0.305000      1.85311  9.05628e-08
     0.300000      1.85714  9.81181e-08
     0.295000      1.86148  1.04956e-07
     0.290000      1.86609  1.11471e-07
     0.285000      1.87104  1.18142e-07
     0.280000      1.87632  1.24925e-07
     0.275000      1.88203  1.31644e-07
     0.270000      1.88818  1.38516e-07
     0.265000      1.89483  1.45845e-07
     0.260000      1.90205  1.52258e-07
     0.255000      1.90992  1.57199e-07
     0.250000      1.91847  1.66227e-07
     0.245000      1.92785  1.84028e-07
     0.240000      1.93819  2.06030e-07
     0.235000      1.94957  2.26688e-07
     0.230000      1.96224  2.46546e-07
     0.225000      1.97639  2.67482e-07
     0.220000      1.99228  2.87925e-07
     0.215000      2.01027  3.05159e-07
     0.210000      2.03080  3.30614e-07
     0.205000      2.05446  3.62899e-07
     0.200000      2.08213  3.75184e-07
     0.195000      2.11487  3.78108e-07
     0.190000      2.15432  3.81612e-07
     0.185000      2.20309  3.83342e-07
     0.180000      2.26533  1.55575e-05
     0.175000      2.34905  0.000968920
     0.170000      2.46996   0.00177738
     0.165000      2.66542    0.0446212
     0.160000      2.97030     0.116895
     0.155000      3.44737     0.750146
     0.150000      3.03940      1.75456
     0.145000      2.13961      1.80504
     0.140000      1.80307      1.44577
     0.135000      1.72422      1.33405
     0.130000      1.59460      1.27473
     0.125000      1.48233      1.19057
     0.120000      1.39955      1.11470
     0.115000      1.32866      1.04655
     0.110000      1.26700     0.982591
     0.105000      1.21110     0.922531
     0.100000      1.15741     0.861812
    0.0990000      1.14729     0.848919
    0.0980000      1.13753     0.835860
    0.0970000      1.12812     0.822645
    0.0960000      1.11908     0.809279
    0.0950000      1.11043     0.795773
    0.0940000      1.10221     0.782151
    0.0930000      1.09438     0.768416
    0.0920000      1.08704     0.754617
    0.0910000      1.08013     0.740753
    0.0900000      1.07369     0.726861
    0.0890000      1.06773     0.712973
    0.0880000      1.06230     0.699129
    0.0870000      1.05734     0.685348
    0.0860000      1.05288     0.671667
    0.0850000      1.04891     0.658118
    0.0840000      1.04544     0.644732
    0.0830000      1.04248     0.631554
    0.0820000      1.04005     0.618626
    0.0810000      1.03813     0.605950
    0.0800000      1.03712     0.593761
    0.0790000      1.03622     0.582878
    0.0780000      1.03493     0.572267
    0.0770000      1.03377     0.561907
    0.0760000      1.03264     0.551840
    0.0750000      1.03162     0.542078
    0.0740000      1.03065     0.532616
    0.0730000      1.02970     0.523439
    0.0720000      1.02877     0.514545
    0.0710000      1.02786     0.505934
    0.0700000      1.02689     0.497578
    0.0690000      1.02592     0.489481
    0.0680000      1.02485     0.481614
    0.0670000      1.02371     0.473974
    0.0660000      1.02249     0.466542
    0.0650000      1.02113     0.459294
    0.0640000      1.01961     0.452211
    0.0630000      1.01792     0.445272
    0.0620000      1.01599     0.438445
    0.0610000      1.01384     0.431740
    0.0600000      1.01079     0.424946
    0.0590000      1.00797     0.416765
    0.0580000      1.00593     0.408788
    0.0570000      1.00406     0.400931
    0.0560000      1.00232     0.393181
    0.0550000      1.00072     0.385544
    0.0540000     0.999162     0.378008
    0.0530000     0.997695     0.370585
    0.0520000     0.996277     0.363270
    0.0510000     0.994886     0.356059
    0.0500000     0.993523     0.348957
    0.0490000     0.992169     0.341959
    0.0480000     0.990784     0.335053
    0.0470000     0.989388     0.328245
    0.0460000     0.987984     0.321526
    0.0450000     0.986513     0.314880
    0.0440000     0.985017     0.308308
    0.0430000     0.983437     0.301790
    0.0420000     0.981777     0.295312
    0.0410000     0.980038     0.288865
    0.0400000     0.978211     0.282428
    0.0390000     0.976296     0.275985
    0.0380000     0.974286     0.269519
    0.0370000     0.972179     0.263007
    0.0360000     0.969979     0.256430
    0.0350000     0.967692     0.249766
    0.0340000     0.965324     0.242995
    0.0330000     0.962889     0.236092
    0.0320000     0.960402     0.229040
    0.0310000     0.957875     0.221814
    0.0300000     0.955407     0.214405
    0.0290000     0.952878     0.206961
    0.0280000     0.950240     0.199226
    0.0270000     0.947640     0.191198
    0.0260000     0.945116     0.182872
    0.0250000     0.942723     0.174246
    0.0240000     0.940508     0.165323
    0.0230000     0.938521     0.156112
    0.0220000     0.936806     0.146626
    0.0210000     0.935422     0.136887
    0.0200000     0.934355     0.126917
    0.0190000     0.933755     0.116626
    0.0180000     0.933733     0.106212
    0.0170000     0.934269    0.0957281
    0.0160000     0.935403    0.0852461
    0.0150000     0.937161    0.0748424
    0.0140000     0.939564    0.0646074
    0.0130000     0.942613    0.0546421
    0.0120000     0.946306    0.0450590
    0.0110000     0.950532    0.0359853
   0.01000000     0.957385    0.0275954
