Amorphous Silicate
      3.50000
Ref: Li & Greenberg 1997, A&A, 323, 566; Li to Kolokolova (?) to Wyatt (Sep 20, 1999)
    1181
Wavelength (microns), Re(eps), Im(eps)
      2980.00      9.50721    0.0580392
      2960.00      9.50727    0.0584316
      2940.00      9.50727    0.0588291
      2920.00      9.50726    0.0592320
      2900.00      9.50726    0.0596405
      2880.00      9.50726    0.0600547
      2860.00      9.50726    0.0604747
      2840.00      9.50726    0.0609005
      2820.00      9.50726    0.0613324
      2800.00      9.50726    0.0617704
      2780.00      9.50725    0.0622150
      2760.00      9.50725    0.0626658
      2740.00      9.50725    0.0631234
      2720.00      9.50725    0.0635871
      2700.00      9.50725    0.0640583
      2680.00      9.50725    0.0645362
      2660.00      9.50724    0.0650215
      2640.00      9.50724    0.0655142
      2620.00      9.50724    0.0660144
      2600.00      9.50724    0.0665219
      2580.00      9.50724    0.0670381
      2560.00      9.50724    0.0675616
      2540.00      9.50723    0.0680932
      2520.00      9.50723    0.0686340
      2500.00      9.50723    0.0691829
      2480.00      9.50723    0.0697410
      2460.00      9.50723    0.0703077
      2440.00      9.50722    0.0708843
      2420.00      9.50722    0.0714701
      2400.00      9.50722    0.0720658
      2380.00      9.50722    0.0726714
      2360.00      9.50721    0.0732869
      2340.00      9.50721    0.0739134
      2320.00      9.50721    0.0745504
      2300.00      9.50727    0.0751988
      2280.00      9.50727    0.0758587
      2260.00      9.50726    0.0765302
      2240.00      9.50726    0.0772135
      2220.00      9.50726    0.0779091
      2200.00      9.50719    0.0786168
      2180.00      9.50707    0.0793378
      2160.00      9.50700    0.0800720
      2140.00      9.50688    0.0808202
      2120.00      9.50675    0.0815818
      2100.00      9.50662    0.0823583
      2080.00      9.50656    0.0831498
      2060.00      9.50649    0.0839568
      2040.01      9.50649    0.0847800
      2020.01      9.50648    0.0856193
      2000.01      9.50648    0.0864758
      1980.01      9.50654    0.0873493
      1960.01      9.50653    0.0882410
      1940.01      9.50653    0.0891505
      1920.01      9.50653    0.0900792
      1900.01      9.50652    0.0910270
      1880.01      9.50652    0.0919958
      1860.01      9.50651    0.0929849
      1840.01      9.50651    0.0939956
      1820.01      9.50656    0.0950288
      1800.01      9.50656    0.0960846
      1780.01      9.50655    0.0971643
      1760.01      9.50649    0.0982679
      1740.01      9.50642    0.0993973
      1720.01      9.50629     0.100552
      1700.01      9.50610     0.101735
      1680.01      9.50597     0.102945
      1660.01      9.50584     0.104184
      1640.01      9.50577     0.105454
      1620.01      9.50576     0.106757
      1600.01      9.50575     0.108091
      1580.01      9.50575     0.109459
      1560.01      9.50580     0.110863
      1540.01      9.50585     0.112303
      1520.01      9.50584     0.113780
      1500.01      9.50583     0.115298
      1480.01      9.50576     0.116855
      1460.01      9.50563     0.118455
      1440.01      9.50543     0.120099
      1420.01      9.50524     0.121790
      1400.01      9.50511     0.123529
      1380.01      9.50509     0.125319
      1360.01      9.50508     0.127162
      1340.01      9.50513     0.129060
      1320.01      9.50506     0.131015
      1300.01      9.50486     0.133030
      1280.01      9.50466     0.135107
      1260.01      9.50445     0.137250
      1240.01      9.50438     0.139463
      1220.01      9.50436     0.141750
      1200.01      9.50434     0.144112
      1180.01      9.50432     0.146555
      1160.01      9.50418     0.149081
      1140.01      9.50398     0.151695
      1120.01      9.50377     0.154402
      1100.01      9.50350     0.157207
      1080.01      9.50329     0.160117
      1060.01      9.50308     0.163136
      1040.01      9.50280     0.166272
      1020.01      9.50259     0.169530
      1000.01      9.50231     0.172918
      995.005      9.50231     0.173787
      990.005      9.50224     0.174665
      985.005      9.50217     0.175551
      980.005      9.50210     0.176445
      975.005      9.50203     0.177350
      970.005      9.50196     0.178263
      965.005      9.50189     0.179186
      960.005      9.50182     0.180119
      955.005      9.50175     0.181061
      950.005      9.50167     0.182014
      945.005      9.50160     0.182976
      940.005      9.50159     0.183950
      935.005      9.50152     0.184933
      930.005      9.50145     0.185926
      925.005      9.50138     0.186931
      920.005      9.50131     0.187946
      915.005      9.50124     0.188973
      910.005      9.50117     0.190010
      905.005      9.50109     0.191060
      900.005      9.50102     0.192120
      895.005      9.50095     0.193193
      890.005      9.50088     0.194278
      885.005      9.50080     0.195374
      880.005      9.50073     0.196484
      875.005      9.50066     0.197606
      870.005      9.50058     0.198741
      865.005      9.50051     0.199889
      860.005      9.50043     0.201050
      855.005      9.50036     0.202226
      850.005      9.50029     0.203414
      845.005      9.50021     0.204617
      840.005      9.50014     0.205835
      835.005      9.50006     0.207066
      830.005      9.49999     0.208313
      825.005      9.49991     0.209575
      820.005      9.49990     0.210853
      815.005      9.49982     0.212146
      810.005      9.49974     0.213455
      805.005      9.49967     0.214780
      800.005      9.49953     0.216121
      795.005      9.49945     0.217479
      790.005      9.49931     0.218854
      785.005      9.49917     0.220247
      780.005      9.49897     0.221657
      775.005      9.49883     0.223085
      770.005      9.49863     0.224531
      765.005      9.49849     0.225998
      760.005      9.49835     0.227483
      755.005      9.49815     0.228987
      750.005      9.49800     0.230512
      745.005      9.49792     0.232059
      740.005      9.49778     0.233625
      735.005      9.49770     0.235214
      730.005      9.49762     0.236824
      725.005      9.49754     0.238456
      720.005      9.49745     0.240111
      715.005      9.49737     0.241790
      710.005      9.49723     0.243491
      705.005      9.49714     0.245217
      700.005      9.49700     0.246967
      695.005      9.49685     0.248742
      690.005      9.49664     0.250542
      685.005      9.49649     0.252369
      680.005      9.49628     0.254222
      675.005      9.49607     0.256103
      670.005      9.49586     0.258012
      665.005      9.49565     0.259949
      660.005      9.49544     0.261916
      655.005      9.49529     0.263913
      650.005      9.49508     0.265941
      645.005      9.49486     0.268000
      640.005      9.49465     0.270091
      635.005      9.49449     0.272216
      630.005      9.49428     0.274374
      625.005      9.49412     0.276567
      620.005      9.49390     0.278795
      615.005      9.49375     0.281060
      610.005      9.49353     0.283361
      605.005      9.49331     0.285699
      600.005      9.49309     0.288078
      595.005      9.49280     0.290495
      590.005      9.49252     0.292952
      585.005      9.49224     0.295452
      580.005      9.49195     0.297996
      575.005      9.49160     0.300582
      570.005      9.49125     0.303213
      565.005      9.49090     0.305892
      560.005      9.49055     0.308618
      555.005      9.49019     0.311394
      550.005      9.48990     0.314220
      545.005      9.48954     0.317098
      540.005      9.48919     0.320029
      535.005      9.48883     0.323014
      530.005      9.48847     0.326056
      525.005      9.48817     0.329157
      520.005      9.48780     0.332317
      515.005      9.48744     0.335538
      510.005      9.48707     0.338822
      505.005      9.48664     0.342170
      500.005      9.45992     0.345105
      495.005      9.48467     0.349048
      490.005      9.49157     0.352739
      485.005      9.49088     0.356364
      480.005      9.48982     0.360057
      475.005      9.48957     0.363844
      470.005      9.48931     0.367711
      465.005      9.48892     0.371659
      460.005      9.48866     0.375695
      455.005      9.48833     0.379818
      450.005      9.48806     0.384035
      445.005      9.48785     0.388347
      440.005      9.48763     0.392758
      435.005      9.48742     0.397269
      430.005      9.48720     0.401886
      425.005      9.48697     0.406611
      420.005      9.48681     0.411451
      415.005      9.48664     0.416407
      410.005      9.48646     0.421483
      405.005      9.48635     0.426687
      400.005      9.48629     0.432021
      395.005      9.48623     0.437492
      390.005      9.48616     0.443102
      385.005      9.48608     0.448858
      380.005      9.48607     0.454767
      375.005      9.48604     0.460833
      370.005      9.48608     0.467065
      365.005      9.48616     0.473470
      360.005      9.48625     0.480052
      355.005      9.48638     0.486821
      350.005      9.48651     0.493783
      345.005      9.48669     0.500949
      340.005      9.48693     0.508327
      335.005      9.48715     0.515926
      330.005      9.48743     0.523756
      325.005      9.48776     0.531830
      320.005      9.48808     0.540155
      315.005      9.48852     0.548748
      310.005      9.48894     0.557619
      305.005      9.48941     0.566782
      300.005      9.48998     0.576254
      295.005      9.49055     0.586084
      290.005      9.49115     0.596325
      285.005      9.49187     0.607004
      280.005      9.49255     0.618154
      275.005      9.49334     0.629802
      270.005      9.49411     0.641988
      265.005      9.49497     0.654746
      260.005      9.49593     0.668134
      255.005      9.49678     0.682188
      250.005      9.49773     0.696964
      245.005      9.49876     0.712523
      240.005      9.49975     0.728925
      235.005      9.50074     0.746244
      230.005      9.50175     0.764563
      225.005      9.50269     0.783971
      220.005      9.50350     0.804558
      215.005      9.50423     0.826445
      210.005      9.50481     0.849759
      205.005      9.50505     0.874621
      200.005      9.50498     0.901225
      195.005      9.50442     0.929696
      190.005      9.50297     0.960146
      185.005      9.50062     0.992631
      180.005      9.49718      1.02722
      175.005      9.49226      1.06392
      170.005      9.48571      1.10276
      165.005      9.47723      1.14370
      160.005      9.46655      1.18665
      155.005      9.45349      1.23146
      150.005      9.43761      1.27789
      145.005      9.41887      1.32561
      140.005      9.39705      1.37409
      135.005      9.37226      1.42270
      130.005      9.34488      1.47059
      125.005      9.31599      1.51667
      120.005      9.28757      1.55963
      115.005      9.26505      1.59953
      110.005      9.25372      1.64279
      105.005      9.25439      1.69989
      100.005      9.25906      1.78530
      99.5050      9.25853      1.79599
      99.0050      9.25759      1.80698
      98.5050      9.25620      1.81812
      98.0050      9.25437      1.82929
      97.5050      9.25211      1.84036
      97.0050      9.24949      1.85128
      96.5050      9.24663      1.86201
      96.0050      9.24366      1.87257
      95.5050      9.24064      1.88297
      95.0050      9.23757      1.89326
      94.5050      9.23449      1.90351
      94.0050      9.23140      1.91377
      93.5050      9.22825      1.92403
      93.0050      9.22515      1.93432
      92.5050      9.22191      1.94462
      92.0050      9.21867      1.95495
      91.5050      9.21542      1.96530
      91.0050      9.21217      1.97567
      90.5050      9.20890      1.98608
      90.0050      9.20562      1.99652
      89.5050      9.20233      2.00702
      89.0050      9.19903      2.01758
      88.5050      9.19578      2.02821
      88.0050      9.19257      2.03894
      87.5050      9.18934      2.04977
      87.0050      9.18609      2.06070
      86.5050      9.18289      2.07174
      86.0050      9.17973      2.08292
      85.5050      9.17654      2.09424
      85.0050      9.17333      2.10570
      84.5050      9.17010      2.11731
      84.0050      9.16684      2.12906
      83.5050      9.16356      2.14096
      83.0050      9.16025      2.15300
      82.5050      9.15692      2.16517
      82.0050      9.15363      2.17749
      81.5050      9.15031      2.18995
      81.0050      9.14703      2.20256
      80.5050      9.14371      2.21534
      80.0050      9.14043      2.22832
      79.5050      9.13717      2.24149
      79.0050      9.13395      2.25487
      78.5050      9.13080      2.26852
      78.0050      9.12766      2.28246
      77.5050      9.12455      2.29671
      77.0050      9.12137      2.31134
      76.5050      9.11812      2.32639
      76.0050      9.11474      2.34190
      75.5050      9.11118      2.35782
      75.0050      9.10725      2.37408
      74.5050      9.10302      2.39061
      74.0050      9.09844      2.40732
      73.5050      9.09346      2.42410
      73.0050      9.08829      2.44089
      72.5050      9.08285      2.45763
      72.0050      9.07729      2.47429
      71.5050      9.07166      2.49082
      71.0050      9.06605      2.50717
      70.5050      9.06062      2.52337
      70.0050      9.05551      2.53939
      69.5050      9.05096      2.55535
      69.0050      9.04711      2.57149
      68.5050      9.04399      2.58806
      68.0050      9.04167      2.60539
      67.5050      9.03988      2.62374
      67.0050      9.03862      2.64338
      66.5050      9.03752      2.66442
      66.0050      9.03643      2.68691
      65.5050      9.03503      2.71096
      65.0050      9.03323      2.73662
      64.5050      9.03060      2.76388
      64.0050      9.02688      2.79274
      63.5050      9.02154      2.82299
      63.0050      9.01432      2.85418
      62.5050      9.00517      2.88579
      62.0050      8.99408      2.91718
      61.5050      8.98130      2.94782
      61.0050      8.96727      2.97731
      60.5050      8.95279      3.00554
      60.0050      8.93825      3.03260
      59.5050      8.92401      3.05878
      59.0050      8.91039      3.08437
      58.5050      8.89765      3.10962
      58.0050      8.88594      3.13484
      57.5050      8.87559      3.16059
      57.0050      8.86669      3.18748
      56.5050      8.85905      3.21617
      56.0050      8.85228      3.24743
      55.5050      8.84576      3.28218
      55.0050      8.83834      3.32084
      54.5050      8.82861      3.36312
      54.0050      8.81560      3.40834
      53.5050      8.79861      3.45549
      53.0050      8.77751      3.50343
      52.5050      8.75220      3.55100
      52.0050      8.72331      3.59730
      51.5050      8.69147      3.64168
      51.0050      8.65731      3.68389
      50.5050      8.62120      3.72376
      50.0050      8.58371      3.76110
      49.5050      8.54528      3.79568
      49.0050      8.50665      3.82736
      48.5050      8.46846      3.85616
      48.0050      8.43136      3.88236
      47.5050      8.39586      3.90622
      47.0050      8.36253      3.92809
      46.5050      8.33205      3.94824
      46.0050      8.30529      3.96725
      45.5050      8.28300      3.98621
      45.0050      8.26567      4.00651
      44.5050      8.25327      4.02981
      44.0050      8.24544      4.05770
      43.5050      8.24130      4.09194
      43.0050      8.23926      4.13417
      42.5050      8.23737      4.18488
      42.0050      8.23384      4.24390
      41.5050      8.22751      4.31115
      41.0050      8.21705      4.38620
      40.5050      8.20116      4.46936
      40.0050      8.17809      4.56118
      39.5050      8.14362      4.65810
      39.0050      8.09756      4.75578
      38.5050      8.04372      4.85144
      38.0050      7.98361      4.94422
      37.5050      7.92020      5.03519
      37.0050      7.85520      5.12654
      36.5050      7.78733      5.22056
      36.0050      7.71609      5.31922
      35.5050      7.63854      5.42317
      35.0050      7.55255      5.53170
      34.5050      7.45776      5.64385
      34.0050      7.35317      5.75949
      33.5050      7.23742      5.87846
      33.0050      7.10943      6.00051
      32.5050      6.96555      6.12635
      32.0050      6.80443      6.25032
      31.5050      6.62960      6.36988
      31.0050      6.43747      6.49745
      30.5050      6.21161      6.62674
      30.0050      5.94609      6.74412
      29.5050      5.63133      6.82637
      29.0050      5.29884      6.83779
      28.5050      4.99676      6.78990
      28.0050      4.72900      6.72939
      27.5050      4.46207      6.67137
      27.0050      4.18559      6.59127
      26.5050      3.92179      6.47659
      26.0050      3.67921      6.34560
      25.5050      3.44351      6.20746
      25.0050      3.21368      6.04715
      24.9550      3.19151      6.02954
      24.9050      3.16955      6.01168
      24.8550      3.14784      5.99352
      24.8050      3.12635      5.97511
      24.7550      3.10512      5.95649
      24.7050      3.08413      5.93757
      24.6550      3.06348      5.91842
      24.6050      3.04310      5.89913
      24.5550      3.02300      5.87958
      24.5050      3.00321      5.85985
      24.4550      2.98376      5.83996
      24.4050      2.96464      5.81985
      24.3550      2.94583      5.79963
      24.3050      2.92739      5.77922
      24.2550      2.90933      5.75868
      24.2050      2.89154      5.73802
      24.1550      2.87416      5.71719
      24.1050      2.85709      5.69633
      24.0550      2.84041      5.67536
      24.0050      2.82413      5.65430
      23.9550      2.80818      5.63321
      23.9050      2.79261      5.61207
      23.8550      2.77745      5.59096
      23.8050      2.76268      5.56988
      23.7550      2.74826      5.54880
      23.7050      2.73421      5.52779
      23.6550      2.72052      5.50685
      23.6050      2.70724      5.48600
      23.5550      2.69428      5.46520
      23.5050      2.68171      5.44460
      23.4550      2.66943      5.42409
      23.4050      2.65750      5.40375
      23.3550      2.64591      5.38360
      23.3050      2.63454      5.36361
      23.2550      2.62354      5.34386
      23.2050      2.61276      5.32428
      23.1550      2.60221      5.30497
      23.1050      2.59204      5.28593
      23.0550      2.58194      5.26712
      23.0050      2.57208      5.24854
      22.9550      2.56237      5.23024
      22.9050      2.55285      5.21225
      22.8550      2.54345      5.19448
      22.8050      2.53415      5.17706
      22.7550      2.52499      5.15993
      22.7050      2.51591      5.14308
      22.6550      2.50691      5.12653
      22.6050      2.49795      5.11024
      22.5550      2.48903      5.09428
      22.5050      2.48019      5.07861
      22.4550      2.47126      5.06322
      22.4050      2.46240      5.04813
      22.3550      2.45348      5.03327
      22.3050      2.44448      5.01867
      22.2550      2.43547      5.00441
      22.2050      2.42637      4.99032
      22.1550      2.41715      4.97649
      22.1050      2.40785      4.96290
      22.0550      2.39842      4.94957
      22.0050      2.38884      4.93644
      21.9550      2.37914      4.92355
      21.9050      2.36930      4.91092
      21.8550      2.35925      4.89849
      21.8050      2.34907      4.88631
      21.7550      2.33865      4.87437
      21.7050      2.32803      4.86264
      21.6550      2.31721      4.85109
      21.6050      2.30615      4.83979
      21.5550      2.29481      4.82863
      21.5050      2.28322      4.81764
      21.4550      2.27139      4.80682
      21.4050      2.25924      4.79612
      21.3550      2.24682      4.78545
      21.3050      2.23405      4.77488
      21.2550      2.22092      4.76440
      21.2050      2.20740      4.75399
      21.1550      2.19339      4.74363
      21.1050      2.17895      4.73330
      21.0550      2.16399      4.72300
      21.0050      2.14855      4.71265
      20.9550      2.13256      4.70236
      20.9050      2.11599      4.69194
      20.8550      2.09897      4.68136
      20.8050      2.08144      4.67054
      20.7550      2.06347      4.65939
      20.7050      2.04507      4.64788
      20.6550      2.02631      4.63601
      20.6050      2.00719      4.62353
      20.5550      1.98779      4.61057
      20.5050      1.96811      4.59707
      20.4550      1.94819      4.58306
      20.4050      1.92805      4.56849
      20.3550      1.90783      4.55334
      20.3050      1.88740      4.53765
      20.2550      1.86693      4.52142
      20.2050      1.84645      4.50467
      20.1550      1.82594      4.48739
      20.1050      1.80543      4.46960
      20.0550      1.78503      4.45137
      20.0050      1.76470      4.43264
      19.9550      1.74449      4.41348
      19.9050      1.72443      4.39393
      19.8550      1.70455      4.37394
      19.8050      1.68480      4.35361
      19.7550      1.66516      4.33297
      19.7050      1.64563      4.31201
      19.6550      1.62621      4.29075
      19.6050      1.60684      4.26919
      19.5550      1.58753      4.24741
      19.5050      1.56825      4.22537
      19.4550      1.54899      4.20302
      19.4050      1.52974      4.18046
      19.3550      1.51048      4.15757
      19.3050      1.49122      4.13436
      19.2550      1.47194      4.11083
      19.2050      1.45266      4.08692
      19.1550      1.43330      4.06265
      19.1050      1.41390      4.03799
      19.0550      1.39455      4.01289
      19.0050      1.37516      3.98742
      18.9550      1.35574      3.96147
      18.9050      1.33638      3.93511
      18.8550      1.31706      3.90823
      18.8050      1.29774      3.88080
      18.7550      1.27846      3.85292
      18.7050      1.25914      3.82446
      18.6550      1.23982      3.79549
      18.6050      1.22051      3.76589
      18.5550      1.20121      3.73573
      18.5050      1.18189      3.70494
      18.4550      1.16267      3.67343
      18.4050      1.14355      3.64115
      18.3550      1.12454      3.60798
      18.3050      1.10579      3.57393
      18.2550      1.08727      3.53892
      18.2050      1.06909      3.50290
      18.1550      1.05135      3.46581
      18.1050      1.03416      3.42772
      18.0550      1.01764      3.38864
      18.0050      1.00185      3.34856
      17.9550     0.986981      3.30755
      17.9050     0.973033      3.26565
      17.8550     0.960177      3.22293
      17.8050     0.948403      3.17946
      17.7550     0.937746      3.13530
      17.7050     0.928250      3.09057
      17.6550     0.919925      3.04536
      17.6050     0.912809      2.99976
      17.5550     0.906805      2.95384
      17.5050     0.902027      2.90769
      17.4550     0.898401      2.86140
      17.4050     0.895957      2.81499
      17.3550     0.894676      2.76857
      17.3050     0.894446      2.72220
      17.2550     0.895423      2.67585
      17.2050     0.897407      2.62958
      17.1550     0.900363      2.58350
      17.1050     0.904150      2.53760
      17.0550     0.908776      2.49193
      17.0050     0.914141      2.44649
      16.9550     0.920227      2.40137
      16.9050     0.926965      2.35645
      16.8550     0.934370      2.31163
      16.8050     0.942493      2.26682
      16.7550     0.951296      2.22193
      16.7050     0.960881      2.17693
      16.6550     0.971182      2.13167
      16.6050     0.982330      2.08619
      16.5550     0.994482      2.04055
      16.5050      1.00774      1.99480
      16.4550      1.02219      1.94897
      16.4050      1.03794      1.90314
      16.3550      1.05516      1.85740
      16.3050      1.07383      1.81185
      16.2550      1.09387      1.76656
      16.2050      1.11532      1.72168
      16.1550      1.13811      1.67729
      16.1050      1.16227      1.63353
      16.0550      1.18766      1.59052
      16.0050      1.21436      1.54834
      15.9550      1.24228      1.50705
      15.9050      1.27141      1.46675
      15.8550      1.30169      1.42751
      15.8050      1.33309      1.38941
      15.7550      1.36556      1.35252
      15.7050      1.39897      1.31690
      15.6550      1.43336      1.28268
      15.6050      1.46857      1.24990
      15.5550      1.50457      1.21863
      15.5050      1.54119      1.18896
      15.4550      1.57842      1.16093
      15.4050      1.61617      1.13457
      15.3550      1.65436      1.10994
      15.3050      1.69289      1.08705
      15.2550      1.73170      1.06591
      15.2050      1.77061      1.04651
      15.1550      1.80941      1.02899
      15.1050      1.84783      1.01338
      15.0550      1.88568     0.999711
      15.0050      1.92276     0.987928
      14.9550      1.95884     0.978213
      14.9050      1.99383     0.970112
      14.8550      2.02764     0.963366
      14.8050      2.06022     0.957710
      14.7550      2.09149     0.952831
      14.7050      2.12145     0.948314
      14.6550      2.15014     0.943999
      14.6050      2.17773     0.939742
      14.5550      2.20426     0.935346
      14.5050      2.22994     0.930695
      14.4550      2.25493     0.925655
      14.4050      2.27937     0.920167
      14.3550      2.30346     0.914211
      14.3050      2.32714     0.907736
      14.2550      2.35060     0.900764
      14.2050      2.37414     0.893358
      14.1550      2.39767     0.885496
      14.1050      2.42137     0.877168
      14.0550      2.44538     0.868400
      14.0050      2.46977     0.859198
      13.9550      2.49468     0.849585
      13.9050      2.52022     0.839592
      13.8550      2.54645     0.829249
      13.8050      2.57352     0.818601
      13.7550      2.60159     0.807715
      13.7050      2.63077     0.796664
      13.6550      2.66119     0.785525
      13.6050      2.69300     0.774408
      13.5550      2.72632     0.763428
      13.5050      2.76131     0.752737
      13.4550      2.79809     0.742502
      13.4050      2.83676     0.732939
      13.3550      2.87741     0.724279
      13.3050      2.92015     0.716807
      13.2550      2.96496     0.710809
      13.2050      3.01196     0.706566
      13.1550      3.06101     0.704455
      13.1050      3.11210     0.704870
      13.0550      3.16504     0.708150
      13.0050      3.21978     0.714684
      12.9550      3.27607     0.724787
      12.9050      3.33365     0.738778
      12.8550      3.39227     0.756932
      12.8050      3.45165     0.779474
      12.7550      3.51144     0.806784
      12.7050      3.57133     0.838804
      12.6550      3.63099     0.875476
      12.6050      3.69014     0.916867
      12.5550      3.74836     0.962928
      12.5050      3.80521      1.01371
      12.4550      3.86059      1.07001
      12.4050      3.91408      1.13229
      12.3550      3.96527      1.20105
      12.3050      4.01382      1.27673
      12.2550      4.05832      1.35949
      12.2050      4.09750      1.44928
      12.1550      4.13003      1.54576
      12.1050      4.15468      1.64871
      12.0550      4.17015      1.75690
      12.0050      4.17581      1.86847
      11.9550      4.17112      1.98182
      11.9050      4.15570      2.09497
      11.8550      4.12941      2.20610
      11.8050      4.09320      2.31544
      11.7550      4.04765      2.42242
      11.7050      3.99346      2.52659
      11.6550      3.93215      2.62823
      11.6050      3.86256      2.72471
      11.5550      3.78455      2.81441
      11.5050      3.69862      2.89588
      11.4550      3.60385      2.96720
      11.4050      3.50420      3.02880
      11.3550      3.40199      3.08087
      11.3050      3.29942      3.12403
      11.2550      3.19963      3.15916
      11.2050      3.10132      3.18743
      11.1550      3.00386      3.20982
      11.1050      2.90666      3.22725
      11.0550      2.80792      3.24043
      11.0050      2.70843      3.24946
      10.9550      2.60815      3.25422
      10.9050      2.50727      3.25438
      10.8550      2.40655      3.24968
      10.8050      2.30522      3.23869
      10.7550      2.20346      3.22042
      10.7050      2.10154      3.19402
      10.6550      2.00000      3.15897
      10.6050      1.90188      3.11609
      10.5550      1.80907      3.06626
      10.5050      1.72364      3.01049
      10.4550      1.64582      2.95038
      10.4050      1.57392      2.88771
      10.3550      1.50668      2.82379
      10.3050      1.44242      2.76010
      10.2550      1.38048      2.69589
      10.2050      1.32050      2.63024
      10.1550      1.26228      2.56217
      10.1050      1.20591      2.49066
      10.0550      1.15262      2.41543
      10.0050      1.10349      2.33637
      9.95500      1.05966      2.25340
      9.90500      1.02156      2.16734
      9.85500     0.989214      2.07940
      9.80500     0.962507      1.99065
      9.75500     0.941245      1.90228
      9.70500     0.925047      1.81433
      9.65500     0.913596      1.72709
      9.60500     0.906725      1.64076
      9.55500     0.903918      1.55530
      9.50500     0.904616      1.47060
      9.45500     0.907921      1.38635
      9.40500     0.913447      1.30261
      9.35500     0.925469      1.22191
      9.30500     0.944707      1.14465
      9.25500     0.976824      1.07326
      9.20500      1.00507      1.00023
      9.15500      1.01964     0.922604
      9.10500      1.00694     0.837214
      9.05500     0.980538     0.750944
      9.00500     0.960010     0.671237
      8.95500     0.963994     0.603225
      8.90500     0.996025     0.546471
      8.85500      1.04280     0.496640
      8.80500      1.09277     0.451183
      8.75500      1.13618     0.408661
      8.70500      1.17643     0.369087
      8.65500      1.21486     0.331892
      8.60500      1.25404     0.296482
      8.55500      1.29325     0.262437
      8.50500      1.33308     0.229545
      8.45500      1.37401     0.197817
      8.40500      1.41628     0.167689
      8.35500      1.45987     0.139742
      8.30500      1.50457     0.114667
      8.25500      1.55025    0.0931639
      8.20500      1.59647    0.0758069
      8.15500      1.64251    0.0629009
      8.10500      1.68707    0.0542170
      8.05500      1.72887    0.0492888
      8.00500      1.76712    0.0473207
      7.95500      1.80197    0.0472266
      7.90500      1.83384    0.0478508
      7.85500      1.86302    0.0484859
      7.80500      1.88970    0.0488481
      7.75500      1.91420    0.0489032
      7.70500      1.93717    0.0480252
      7.65500      1.95923    0.0457484
      7.60500      1.98098    0.0416733
      7.55500      2.00290    0.0372849
      7.50500      2.02533    0.0338819
      7.45500      2.04809    0.0321748
      7.40500      2.07043    0.0314247
      7.35500      2.09147    0.0308163
      7.30500      2.11128    0.0301940
      7.25500      2.13024    0.0296920
      7.20500      2.14885    0.0294570
      7.15500      2.16683    0.0294710
      7.10500      2.18412    0.0297489
      7.05500      2.20061    0.0301330
      7.00500      2.21645    0.0303676
      6.95500      2.23175    0.0302323
      6.90500      2.24663    0.0299245
      6.85500      2.26126    0.0296543
      6.80500      2.27563    0.0294894
      6.75500      2.28971    0.0293756
      6.70500      2.30338    0.0292626
      6.65500      2.31673    0.0291832
      6.60500      2.32974    0.0291550
      6.55500      2.34246    0.0291563
      6.50500      2.35485    0.0291574
      6.45500      2.36695    0.0291500
      6.40500      2.37878    0.0291496
      6.35500      2.39034    0.0291704
      6.30500      2.40170    0.0292131
      6.25500      2.41278    0.0292762
      6.20500      2.42363    0.0293585
      6.15500      2.43420    0.0294566
      6.10500      2.44457    0.0295682
      6.05500      2.45468    0.0296902
      6.00500      2.46456    0.0298218
      5.95500      2.47424    0.0299628
      5.90500      2.48372    0.0301087
      5.85500      2.49296    0.0302497
      5.80500      2.50200    0.0303782
      5.75500      2.51083    0.0304899
      5.70500      2.51946    0.0305816
      5.65500      2.52791    0.0306517
      5.60500      2.53619    0.0306964
      5.55500      2.54428    0.0307087
      5.50500      2.55220    0.0306802
      5.45500      2.56000    0.0306014
      5.40500      2.56769    0.0304736
      5.35500      2.57526    0.0303158
      5.30500      2.58271    0.0301402
      5.25500      2.59005    0.0299458
      5.20500      2.59730    0.0297352
      5.15500      2.60446    0.0295166
      5.10500      2.61150    0.0292940
      5.05500      2.61849    0.0290714
      5.00500      2.62542    0.0288649
      4.95500      2.63227    0.0286902
      4.90500      2.63899    0.0285411
      4.85500      2.64562    0.0284113
      4.80500      2.65216    0.0283028
      4.75500      2.65862    0.0282181
      4.70500      2.66501    0.0281604
      4.65500      2.67129    0.0281299
      4.60500      2.67744    0.0281266
      4.55500      2.68353    0.0281516
      4.50500      2.68956    0.0282046
      4.45500      2.69547    0.0282839
      4.40500      2.70125    0.0283897
      4.35500      2.70697    0.0285224
      4.30500      2.71260    0.0286814
      4.25500      2.71810    0.0288653
      4.20500      2.72354    0.0290727
      4.15500      2.72889    0.0293010
      4.10500      2.73415    0.0295562
      4.05500      2.73927    0.0298364
      4.00500      2.74431    0.0301233
      3.95500      2.74928    0.0304018
      3.90500      2.75419    0.0306819
      3.85500      2.75903    0.0309929
      3.80500      2.76378    0.0313362
      3.75500      2.76851    0.0317089
      3.70500      2.77310    0.0321123
      3.65500      2.77763    0.0325515
      3.60500      2.78209    0.0330137
      3.55500      2.78650    0.0334937
      3.50500      2.79080    0.0340258
      3.45500      2.79504    0.0346462
      3.40500      2.79915    0.0353121
      3.35500      2.80310    0.0359558
      3.30500      2.80695    0.0365619
      3.25500      2.81070    0.0371410
      3.20500      2.81442    0.0376900
      3.15500      2.81811    0.0382042
      3.10500      2.82176    0.0386953
      3.05500      2.82546    0.0391799
      3.00500      2.82912    0.0396524
      2.95500      2.83282    0.0401119
      2.90500      2.83665    0.0406181
      2.85500      2.84056    0.0412538
      2.80500      2.84453    0.0420751
      2.75500      2.84847    0.0431105
      2.70500      2.85235    0.0443080
      2.65500      2.85612    0.0455789
      2.60500      2.85997    0.0468865
      2.55500      2.86398    0.0482494
      2.50500      2.86834    0.0498989
      2.45500      2.87299    0.0521651
      2.40500      2.87771    0.0552842
      2.35500      2.88218    0.0594305
      2.30500      2.88600    0.0645478
      2.25500      2.88886    0.0704090
      2.20500      2.89065    0.0768656
      2.15500      2.89116    0.0837540
      2.10500      2.89007    0.0909416
      2.05500      2.88672    0.0980488
      2.00500      2.88055     0.103218
      1.95500      2.87371     0.104352
      1.90500      2.86919     0.102848
      1.85500      2.86691     0.101330
      1.80500      2.86561     0.100442
      1.75500      2.86477     0.100098
      1.70500      2.86405     0.100215
      1.65500      2.86330     0.100706
      1.60500      2.86234     0.101465
      1.55500      2.86107     0.102367
      1.50500      2.85946     0.103253
      1.45500      2.85755     0.103961
      1.40500      2.85552     0.104452
      1.35500      2.85338     0.104727
      1.30500      2.85122     0.104798
      1.25500      2.84902     0.104676
      1.20500      2.84687     0.104383
      1.15500      2.84482     0.103948
      1.10500      2.84284     0.103408
      1.05500      2.84103     0.102816
      1.00500      2.83935     0.102235
      1.00000      2.83918     0.102180
     0.995000      2.83901     0.102125
     0.990000      2.83885     0.102070
     0.985000      2.83868     0.102018
     0.980000      2.83855     0.101968
     0.975000      2.83838     0.101922
     0.970000      2.83821     0.101876
     0.965000      2.83808     0.101831
     0.960000      2.83791     0.101782
     0.955000      2.83774     0.101731
     0.950000      2.83757     0.101679
     0.945000      2.83741     0.101626
     0.940000      2.83724     0.101573
     0.935000      2.83710     0.101520
     0.930000      2.83694     0.101467
     0.925000      2.83680     0.101414
     0.920000      2.83663     0.101360
     0.915000      2.83650     0.101307
     0.910000      2.83633     0.101254
     0.905000      2.83620     0.101201
     0.900000      2.83603     0.101148
     0.895000      2.83590     0.101096
     0.890000      2.83576     0.101043
     0.885000      2.83563     0.100990
     0.880000      2.83550     0.100934
     0.875000      2.83536     0.100878
     0.870000      2.83523     0.100825
     0.865000      2.83510     0.100779
     0.860000      2.83500     0.100738
     0.855000      2.83486     0.100698
     0.850000      2.83473     0.100654
     0.845000      2.83456     0.100602
     0.840000      2.83443     0.100548
     0.835000      2.83433     0.100494
     0.830000      2.83419     0.100443
     0.825000      2.83409     0.100391
     0.820000      2.83399     0.100335
     0.815000      2.83389     0.100277
     0.810000      2.83379     0.100225
     0.805000      2.83372     0.100183
     0.800000      2.83366     0.100155
     0.795000      2.83359     0.100138
     0.790000      2.83349     0.100131
     0.785000      2.83339     0.100132
     0.780000      2.83329     0.100134
     0.775000      2.83319     0.100134
     0.770000      2.83309     0.100132
     0.765000      2.83298     0.100130
     0.760000      2.83288     0.100127
     0.755000      2.83282     0.100126
     0.750000      2.83268     0.100124
     0.745000      2.83258     0.100122
     0.740000      2.83248     0.100120
     0.735000      2.83238     0.100120
     0.730000      2.83228     0.100119
     0.725000      2.83218     0.100114
     0.720000      2.83208     0.100104
     0.715000      2.83194     0.100103
     0.710000      2.83181     0.100122
     0.705000      2.83164     0.100129
     0.700000      2.83150     0.100088
     0.695000      2.83137    0.0999778
     0.690000      2.83127    0.0998451
     0.685000      2.83117    0.0997326
     0.680000      2.83111    0.0996335
     0.675000      2.83108    0.0995238
     0.670000      2.83104    0.0993953
     0.665000      2.83108    0.0992724
     0.660000      2.83112    0.0991757
     0.655000      2.83118    0.0991130
     0.650000      2.83129    0.0990861
     0.645000      2.83135    0.0990846
     0.640000      2.83139    0.0990919
     0.635000      2.83142    0.0990952
     0.630000      2.83145    0.0990897
     0.625000      2.83149    0.0990745
     0.620000      2.83156    0.0990605
     0.615000      2.83159    0.0990568
     0.610000      2.83166    0.0990569
     0.605000      2.83176    0.0990486
     0.600000      2.83183    0.0990353
     0.595000      2.83189    0.0990277
     0.590000      2.83199    0.0990261
     0.585000      2.83206    0.0990202
     0.580000      2.83220    0.0990101
     0.575000      2.83230    0.0990021
     0.570000      2.83243    0.0989991
     0.565000      2.83260    0.0989950
     0.560000      2.83274    0.0989869
     0.555000      2.83290    0.0989817
     0.550000      2.83304    0.0989753
     0.545000      2.83321    0.0989550
     0.540000      2.83341    0.0989246
     0.535000      2.83361    0.0989059
     0.530000      2.83385    0.0988955
     0.525000      2.83408    0.0988659
     0.520000      2.83432    0.0988280
     0.515000      2.83466    0.0988045
     0.510000      2.83493    0.0988281
     0.505000      2.83503    0.0988925
     0.500000      2.83513    0.0986871
     0.495000      2.83545    0.0981124
     0.490000      2.83609    0.0976818
     0.485000      2.83697    0.0976214
     0.480000      2.83768    0.0976952
     0.475000      2.83825    0.0977540
     0.470000      2.83889    0.0977515
     0.465000      2.83956    0.0977395
     0.460000      2.84027    0.0977601
     0.455000      2.84098    0.0977777
     0.450000      2.84172    0.0977874
     0.445000      2.84253    0.0978007
     0.440000      2.84337    0.0978155
     0.435000      2.84422    0.0978303
     0.430000      2.84513    0.0978460
     0.425000      2.84611    0.0978628
     0.420000      2.84712    0.0978802
     0.415000      2.84820    0.0978988
     0.410000      2.84931    0.0979179
     0.405000      2.85050    0.0979382
     0.400000      2.85178    0.0979603
     0.395000      2.85310    0.0979829
     0.390000      2.85452    0.0980072
     0.385000      2.85597    0.0980322
     0.380000      2.85756    0.0980594
     0.375000      2.85925    0.0980884
     0.370000      2.86101    0.0981186
     0.365000      2.86287    0.0981505
     0.360000      2.86483    0.0981841
     0.355000      2.86697    0.0982207
     0.350000      2.86917    0.0982584
     0.345000      2.87151    0.0982984
     0.340000      2.87401    0.0983413
     0.335000      2.87673    0.0983877
     0.330000      2.87955    0.0984359
     0.325000      2.88257    0.0984875
     0.320000      2.88579    0.0985426
     0.315000      2.88923    0.0986012
     0.310000      2.89290    0.0986638
     0.305000      2.89681    0.0987305
     0.300000      2.90100    0.0988018
     0.295000      2.90547    0.0988778
     0.290000      2.91028    0.0989596
     0.285000      2.91543    0.0990472
     0.280000      2.92093    0.0991406
     0.275000      2.92692    0.0992421
     0.270000      2.93332    0.0993505
     0.265000      2.94025    0.0994677
     0.260000      2.94773    0.0995941
     0.255000      2.95581    0.0997304
     0.250000      2.96462    0.0998789
     0.245000      2.97420     0.100040
     0.240000      2.98459     0.100215
     0.235000      2.99600     0.100406
     0.230000      3.00848     0.100615
     0.225000      3.02217     0.100843
     0.220000      3.03728     0.101095
     0.215000      3.05400     0.101373
     0.210000      3.07259     0.101681
     0.205000      3.09331     0.102023
     0.200000      3.11650     0.102405
     0.195000      3.14269     0.102834
     0.190000      3.17237     0.103318
     0.185000      3.20630     0.103869
     0.180000      3.24528     0.104499
     0.175000      3.29070     0.105227
     0.170000      3.34407     0.106077
     0.165000      3.40772     0.107081
     0.160000      3.48489     0.108287
     0.155000      3.58056     0.109763
     0.150000      3.70263     0.111618
     0.145000      3.86491     0.114037
     0.140000      4.09444     0.117373
     0.135000      4.45548     0.122669
     0.130000      5.09288     0.151289
     0.125000      4.58362      1.89398
     0.120000      3.72090      3.02492
     0.115000      2.97866      2.89472
     0.110000      2.70200      2.94454
     0.105000      2.10492      3.16447
     0.100000      1.52438      2.95476
    0.0990000      1.44566      2.91068
    0.0980000      1.36531      2.87051
    0.0970000      1.27658      2.82815
    0.0960000      1.18710      2.77695
    0.0950000      1.10209      2.71307
    0.0940000      1.02327      2.63667
    0.0930000     0.962177      2.54874
    0.0920000     0.927797      2.45553
    0.0910000     0.914263      2.37283
    0.0900000     0.915365      2.30914
    0.0890000     0.925633      2.26460
    0.0880000     0.932029      2.24511
    0.0870000     0.923398      2.24764
    0.0860000     0.896131      2.25513
    0.0850000     0.851108      2.25994
    0.0840000     0.792925      2.25805
    0.0830000     0.727992      2.24206
    0.0820000     0.663910      2.21448
    0.0810000     0.604717      2.18101
    0.0800000     0.548867      2.14346
    0.0790000     0.495518      2.10479
    0.0780000     0.443164      2.06599
    0.0770000     0.389664      2.02533
    0.0760000     0.335588      1.98194
    0.0750000     0.281309      1.93500
    0.0740000     0.227432      1.88411
    0.0730000     0.175146      1.82951
    0.0720000     0.123556      1.77196
    0.0710000    0.0720426      1.71084
    0.0700000    0.0204295      1.64469
    0.0690000   -0.0308627      1.57181
    0.0680000   -0.0798587      1.48996
    0.0670000    -0.123151      1.39861
    0.0660000    -0.159105      1.29857
    0.0650000    -0.184279      1.18866
    0.0640000    -0.193523      1.06960
    0.0630000    -0.180351     0.948597
    0.0620000    -0.142218     0.830969
    0.0610000   -0.0898761     0.724384
    0.0600000    0.0875015     0.751928
    0.0590000     0.185441     0.708505
    0.0580000     0.242567     0.655104
    0.0570000     0.302458     0.622549
    0.0560000     0.351761     0.597601
    0.0550000     0.392693     0.578524
    0.0540000     0.425484     0.562344
    0.0530000     0.451027     0.546196
    0.0520000     0.471933     0.527921
    0.0510000     0.490379     0.507509
    0.0500000     0.507910     0.485249
    0.0490000     0.525307     0.461892
    0.0480000     0.543291     0.437633
    0.0470000     0.562662     0.413191
    0.0460000     0.584090     0.389687
    0.0450000     0.607153     0.369032
    0.0440000     0.630039     0.352206
    0.0430000     0.650902     0.338572
    0.0420000     0.668933     0.326620
    0.0410000     0.683975     0.314865
    0.0400000     0.696952     0.301080
    0.0390000     0.711621     0.284641
    0.0380000     0.730138     0.269907
    0.0370000     0.748973     0.260815
    0.0360000     0.763322     0.255510
    0.0350000     0.773111     0.249201
    0.0340000     0.781397     0.240533
    0.0330000     0.789606     0.230758
    0.0320000     0.797734     0.220533
    0.0310000     0.805733     0.210099
    0.0300000     0.813528     0.199510
    0.0290000     0.821208     0.188680
    0.0280000     0.828927     0.177679
    0.0270000     0.836771     0.166587
    0.0260000     0.844824     0.155457
    0.0250000     0.853250     0.144328
    0.0240000     0.862353     0.133352
    0.0230000     0.872553     0.123070
    0.0220000     0.883843     0.114852
    0.0210000     0.894174     0.110239
    0.0200000     0.900161     0.107561
    0.0190000     0.902346     0.101994
    0.0180000     0.905013    0.0927296
    0.0170000     0.909824    0.0825569
    0.0160000     0.915946    0.0729580
    0.0150000     0.922439    0.0641677
    0.0140000     0.929372    0.0559208
    0.0130000     0.935598    0.0482025
    0.0120000     0.945879    0.0405049
    0.0110000     0.950391    0.0424372
   0.01000000     0.951421    0.0333639
