Organic Refractory
      1.80000
Ref: Li & Greenberg 1997, A&A, 323, 566; Li to Kolokolova (?) to Wyatt (Sep 20, 1999)
    1181
Wavelength (microns), Re(eps), Im(eps)
      2980.00      4.75776  0.000383029
      2960.00      4.75776  0.000385826
      2940.00      4.75776  0.000388658
      2920.00      4.75776  0.000391522
      2900.00      4.75776  0.000394421
      2880.00      4.75776  0.000397354
      2860.00      4.75776  0.000400323
      2840.00      4.75776  0.000403329
      2820.00      4.75776  0.000406371
      2800.00      4.75776  0.000409452
      2780.00      4.75776  0.000412573
      2760.00      4.75776  0.000415735
      2740.00      4.75776  0.000418936
      2720.00      4.75776  0.000422179
      2700.00      4.75776  0.000425466
      2680.00      4.75776  0.000428797
      2660.00      4.75776  0.000432171
      2640.00      4.75776  0.000435589
      2620.00      4.75776  0.000439055
      2600.00      4.75776  0.000442567
      2580.00      4.75776  0.000446136
      2560.00      4.75776  0.000449748
      2540.00      4.75776  0.000453412
      2520.00      4.75776  0.000457129
      2500.00      4.75776  0.000460903
      2480.00      4.75776  0.000464724
      2460.00      4.75776  0.000468602
      2440.00      4.75776  0.000472542
      2420.00      4.75776  0.000476542
      2400.00      4.75776  0.000480604
      2380.00      4.75776  0.000484722
      2360.00      4.75776  0.000488905
      2340.00      4.75776  0.000493154
      2320.00      4.75776  0.000497477
      2300.00      4.75776  0.000501862
      2280.00      4.75776  0.000506316
      2260.00      4.75776  0.000510844
      2240.00      4.75776  0.000515446
      2220.00      4.75776  0.000520127
      2200.00      4.75776  0.000524887
      2180.00      4.75776  0.000529725
      2160.00      4.75776  0.000534646
      2140.00      4.75776  0.000539654
      2120.00      4.75776  0.000544749
      2100.00      4.75776  0.000549932
      2080.00      4.75776  0.000555206
      2060.00      4.75776  0.000560580
      2040.01      4.75776  0.000566051
      2020.01      4.75776  0.000571626
      2000.01      4.75776  0.000577302
      1980.01      4.75776  0.000583086
      1960.01      4.75776  0.000588980
      1940.01      4.75776  0.000594992
      1920.01      4.75776  0.000601116
      1900.01      4.75776  0.000607359
      1880.01      4.75776  0.000613733
      1860.01      4.75776  0.000620237
      1840.01      4.75776  0.000626868
      1820.01      4.75776  0.000633639
      1800.01      4.75776  0.000640557
      1780.01      4.75776  0.000647625
      1760.01      4.75776  0.000654836
      1740.01      4.75776  0.000662204
      1720.01      4.75776  0.000669742
      1700.01      4.75776  0.000677446
      1680.01      4.75776  0.000685325
      1660.01      4.75776  0.000693383
      1640.01      4.75776  0.000701636
      1620.01      4.75776  0.000710073
      1600.01      4.75776  0.000718720
      1580.01      4.75776  0.000727575
      1560.01      4.75776  0.000736645
      1540.01      4.75776  0.000745937
      1520.01      4.75776  0.000755469
      1500.01      4.75776  0.000765254
      1480.01      4.75776  0.000775288
      1460.01      4.75776  0.000785579
      1440.01      4.75776  0.000796149
      1420.01      4.75776  0.000807012
      1400.01      4.75776  0.000818171
      1380.01      4.75776  0.000829635
      1360.01      4.75776  0.000841440
      1340.01      4.75776  0.000853581
      1320.01      4.75776  0.000866084
      1300.01      4.75776  0.000878957
      1280.01      4.75776  0.000892219
      1260.01      4.75776  0.000905887
      1240.01      4.75776  0.000919986
      1220.01      4.75776  0.000934539
      1200.01      4.75776  0.000949564
      1180.01      4.75776  0.000965077
      1160.01      4.75776  0.000981126
      1140.01      4.75776  0.000997721
      1120.01      4.75776   0.00101490
      1100.01      4.75776   0.00103267
      1080.01      4.75776   0.00105110
      1060.01      4.75776   0.00107024
      1040.01      4.75776   0.00109006
      1020.01      4.75776   0.00111065
      1000.01      4.75776   0.00113206
      995.005      4.75776   0.00113754
      990.005      4.75776   0.00114308
      985.005      4.75776   0.00114867
      980.005      4.75776   0.00115432
      975.005      4.75776   0.00116003
      970.005      4.75776   0.00116580
      965.005      4.75776   0.00117162
      960.005      4.75776   0.00117750
      955.005      4.75776   0.00118344
      950.005      4.75776   0.00118945
      945.005      4.75776   0.00119552
      940.005      4.75776   0.00120165
      935.005      4.75776   0.00120785
      930.005      4.75776   0.00121411
      925.005      4.75776   0.00122043
      920.005      4.75776   0.00122683
      915.005      4.75776   0.00123329
      910.005      4.75776   0.00123983
      905.005      4.75776   0.00124644
      900.005      4.75776   0.00125312
      895.005      4.75776   0.00125987
      890.005      4.75776   0.00126669
      885.005      4.75776   0.00127360
      880.005      4.75776   0.00128058
      875.005      4.75776   0.00128764
      870.005      4.75776   0.00129478
      865.005      4.75776   0.00130200
      860.005      4.75776   0.00130931
      855.005      4.75776   0.00131670
      850.005      4.75776   0.00132417
      845.005      4.75776   0.00133173
      840.005      4.75776   0.00133938
      835.005      4.75776   0.00134712
      830.005      4.75776   0.00135495
      825.005      4.75776   0.00136288
      820.005      4.75776   0.00137090
      815.005      4.75776   0.00137902
      810.005      4.75776   0.00138724
      805.005      4.75776   0.00139556
      800.005      4.75776   0.00140398
      795.005      4.75776   0.00141251
      790.005      4.75776   0.00142114
      785.005      4.75776   0.00142988
      780.005      4.75776   0.00143874
      775.005      4.75776   0.00144770
      770.005      4.75776   0.00145679
      765.005      4.75776   0.00146599
      760.005      4.75776   0.00147531
      755.005      4.75776   0.00148475
      750.005      4.75776   0.00149432
      745.005      4.75776   0.00150401
      740.005      4.75776   0.00151384
      735.005      4.75776   0.00152380
      730.005      4.75776   0.00153389
      725.005      4.75776   0.00154411
      720.005      4.75776   0.00155448
      715.005      4.75776   0.00156500
      710.005      4.75776   0.00157566
      705.005      4.75776   0.00158647
      700.005      4.75776   0.00159743
      695.005      4.75776   0.00160855
      690.005      4.75776   0.00161983
      685.005      4.75776   0.00163128
      680.005      4.75776   0.00164289
      675.005      4.75776   0.00165468
      670.005      4.75776   0.00166663
      665.005      4.75776   0.00167875
      660.005      4.75776   0.00169103
      655.005      4.75776   0.00170355
      650.005      4.75776   0.00171636
      645.005      4.75776   0.00172950
      640.005      4.75776   0.00174291
      635.005      4.75776   0.00175654
      630.005      4.75776   0.00177044
      625.005      4.75776   0.00178439
      620.005      4.75776   0.00179818
      615.005      4.75776   0.00181169
      610.005      4.75781   0.00182539
      605.005      4.75781   0.00184035
      600.005      4.75781   0.00185592
      595.005      4.75781   0.00187088
      590.005      4.75781   0.00188624
      585.005      4.75781   0.00190198
      580.005      4.75781   0.00191702
      575.005      4.75781   0.00193229
      570.005      4.75781   0.00194911
      565.005      4.75781   0.00196816
      560.005      4.75781   0.00198452
      555.005      4.75781   0.00199905
      550.005      4.75781   0.00202340
      545.005      4.75781   0.00205078
      540.005      4.75781   0.00207320
      535.005      4.75781   0.00209439
      530.005      4.75781   0.00211504
      525.005      4.75781   0.00213463
      520.005      4.75781   0.00215315
      515.005      4.75781   0.00217287
      510.005      4.75781   0.00219511
      505.005      4.75781   0.00221771
      500.005      4.75781   0.00223626
      495.005      4.75781   0.00225895
      490.005      4.75781   0.00228532
      485.005      4.75781   0.00230833
      480.005      4.75781   0.00232984
      475.005      4.75781   0.00235356
      470.005      4.75785   0.00237799
      465.005      4.75785   0.00240165
      460.005      4.75785   0.00242722
      455.005      4.75785   0.00245386
      450.005      4.75785   0.00248061
      445.005      4.75785   0.00250965
      440.005      4.75785   0.00253839
      435.005      4.75785   0.00256421
      430.005      4.75785   0.00259323
      425.005      4.75785   0.00262130
      420.005      4.75785   0.00265238
      415.005      4.75785   0.00268665
      410.005      4.75785   0.00272107
      405.005      4.75789   0.00275696
      400.005      4.75789   0.00279493
      395.005      4.75789   0.00283241
      390.005      4.75789   0.00286869
      385.005      4.75789   0.00290445
      380.005      4.75789   0.00294165
      375.005      4.75789   0.00297972
      370.005      4.75789   0.00301857
      365.005      4.75789   0.00305955
      360.005      4.75789   0.00310386
      355.005      4.75789   0.00314700
      350.005      4.75794   0.00319276
      345.005      4.75794   0.00323984
      340.005      4.75794   0.00328542
      335.005      4.75794   0.00333304
      330.005      4.75794   0.00338192
      325.005      4.75794   0.00343217
      320.005      4.75794   0.00348414
      315.005      4.75794   0.00353768
      310.005      4.75798   0.00359388
      305.005      4.75798   0.00365157
      300.005      4.75798   0.00371130
      295.005      4.75798   0.00377339
      290.005      4.75802   0.00383788
      285.005      4.75802   0.00390489
      280.005      4.75802   0.00397447
      275.005      4.75802   0.00404677
      270.005      4.75807   0.00412190
      265.005      4.75807   0.00419995
      260.005      4.75807   0.00428112
      255.005      4.75811   0.00436554
      250.005      4.75811   0.00445332
      245.005      4.75811   0.00454472
      240.005      4.75816   0.00463997
      235.005      4.75816   0.00473927
      230.005      4.75820   0.00484277
      225.005      4.75820   0.00495083
      220.005      4.75824   0.00506381
      215.005      4.75824   0.00518195
      210.005      4.75829   0.00530565
      205.005      4.75829   0.00543510
      200.005      4.75833   0.00557080
      195.005      4.75837   0.00571353
      190.005      4.75842   0.00586381
      185.005      4.75842   0.00602235
      180.005      4.75846   0.00618974
      175.005      4.75850   0.00636672
      170.005      4.75855   0.00655413
      165.005      4.75864   0.00675284
      160.005      4.75868   0.00696403
      155.005      4.75872   0.00718875
      150.005      4.75881   0.00742843
      145.005      4.75889   0.00768456
      140.005      4.75898   0.00795911
      135.005      4.75907   0.00825399
      130.005      4.75916   0.00857157
      125.005      4.75929   0.00891450
      120.005      4.75942   0.00928607
      115.005      4.75959   0.00969006
      110.005      4.75977    0.0101306
      105.005      4.75998    0.0106132
      100.005      4.76020    0.0111442
      99.5050      4.76024    0.0112002
      99.0050      4.76029    0.0112568
      98.5050      4.76029    0.0113139
      98.0050      4.76033    0.0113717
      97.5050      4.76033    0.0114300
      97.0050      4.76037    0.0114890
      96.5050      4.76037    0.0115485
      96.0050      4.76042    0.0116087
      95.5050      4.76046    0.0116696
      95.0050      4.76051    0.0117310
      94.5050      4.76051    0.0117931
      94.0050      4.76055    0.0118559
      93.5050      4.76055    0.0119193
      93.0050      4.76059    0.0119834
      92.5050      4.76064    0.0120483
      92.0050      4.76068    0.0121138
      91.5050      4.76068    0.0121799
      91.0050      4.76072    0.0122469
      90.5050      4.76077    0.0123147
      90.0050      4.76081    0.0123832
      89.5050      4.76085    0.0124524
      89.0050      4.76090    0.0125224
      88.5050      4.76090    0.0125932
      88.0050      4.76094    0.0126648
      87.5050      4.76098    0.0127372
      87.0050      4.76103    0.0128104
      86.5050      4.76107    0.0128845
      86.0050      4.76112    0.0129595
      85.5050      4.76111    0.0130353
      85.0050      4.76120    0.0131120
      84.5050      4.76125    0.0131897
      84.0050      4.76129    0.0132682
      83.5050      4.76133    0.0133478
      83.0050      4.76138    0.0134282
      82.5050      4.76142    0.0135097
      82.0050      4.76146    0.0135921
      81.5050      4.76151    0.0136756
      81.0050      4.76155    0.0137601
      80.5050      4.76164    0.0138456
      80.0050      4.76164    0.0139322
      79.5050      4.76172    0.0140199
      79.0050      4.76177    0.0141087
      78.5050      4.76181    0.0141986
      78.0050      4.76186    0.0142897
      77.5050      4.76190    0.0143819
      77.0050      4.76199    0.0144754
      76.5050      4.76203    0.0145701
      76.0050      4.76212    0.0146661
      75.5050      4.76216    0.0147633
      75.0050      4.76225    0.0148618
      74.5050      4.76229    0.0149616
      74.0050      4.76238    0.0150629
      73.5050      4.76242    0.0151654
      73.0050      4.76251    0.0152694
      72.5050      4.76255    0.0153747
      72.0050      4.76264    0.0154817
      71.5050      4.76268    0.0155900
      71.0050      4.76277    0.0157000
      70.5050      4.76286    0.0158114
      70.0050      4.76290    0.0159244
      69.5050      4.76299    0.0160391
      69.0050      4.76307    0.0161555
      68.5050      4.76316    0.0162736
      68.0050      4.76325    0.0163934
      67.5050      4.76334    0.0165149
      67.0050      4.76342    0.0166383
      66.5050      4.76351    0.0167636
      66.0050      4.76364    0.0168908
      65.5050      4.76373    0.0170199
      65.0050      4.76381    0.0171509
      64.5050      4.76390    0.0172840
      64.0050      4.76403    0.0174193
      63.5050      4.76412    0.0175566
      63.0050      4.76421    0.0176961
      62.5050      4.76434    0.0178379
      62.0050      4.76442    0.0179819
      61.5050      4.76455    0.0181284
      61.0050      4.76469    0.0182772
      60.5050      4.76482    0.0184285
      60.0050      4.76490    0.0185822
      59.5050      4.76503    0.0187386
      59.0050      4.76521    0.0188978
      58.5050      4.76534    0.0190595
      58.0050      4.76547    0.0192241
      57.5050      4.76560    0.0193915
      57.0050      4.76577    0.0195619
      56.5050      4.76595    0.0197354
      56.0050      4.76608    0.0199119
      55.5050      4.76621    0.0200915
      55.0050      4.76643    0.0202746
      54.5050      4.76660    0.0204609
      54.0050      4.76678    0.0206508
      53.5050      4.76695    0.0208441
      53.0050      4.76712    0.0210411
      52.5050      4.76734    0.0212420
      52.0050      4.76756    0.0214467
      51.5050      4.76778    0.0216554
      51.0050      4.76795    0.0218681
      50.5050      4.76817    0.0220851
      50.0050      4.76843    0.0223066
      49.5050      4.76869    0.0225324
      49.0050      4.76891    0.0227629
      48.5050      4.76917    0.0229982
      48.0050      4.76948    0.0232385
      47.5050      4.76974    0.0234837
      47.0050      4.77000    0.0237342
      46.5050      4.77031    0.0239901
      46.0050      4.77061    0.0242516
      45.5050      4.77096    0.0245190
      45.0050      4.77127    0.0247922
      44.5050      4.77161    0.0250716
      44.0050      4.77196    0.0253574
      43.5050      4.77236    0.0256499
      43.0050      4.77279    0.0259494
      42.5050      4.77318    0.0262558
      42.0050      4.77362    0.0265695
      41.5050      4.77406    0.0268909
      41.0050      4.77454    0.0272201
      40.5050      4.77502    0.0275574
      40.0050      4.77558    0.0279035
      39.5050      4.77611    0.0282582
      39.0050      4.77663    0.0286220
      38.5050      4.77728    0.0289957
      38.0050      4.77789    0.0293790
      37.5050      4.77855    0.0297727
      37.0050      4.77925    0.0301773
      36.5050      4.77999    0.0305930
      36.0050      4.78078    0.0310203
      35.5050      4.78161    0.0314599
      35.0050      4.78248    0.0319121
      34.5050      4.78340    0.0323778
      34.0050      4.78440    0.0328573
      33.5050      4.78549    0.0333513
      33.0050      4.78658    0.0338605
      32.5050      4.78781    0.0343858
      32.0050      4.78912    0.0349277
      31.5050      4.79052    0.0354874
      31.0050      4.79205    0.0360654
      30.5050      4.79371    0.0366629
      30.0050      4.79546    0.0372806
      29.5050      4.79747    0.0379203
      29.0050      4.79961    0.0385827
      28.5050      4.80202    0.0392694
      28.0050      4.80474    0.0399817
      27.5050      4.80776    0.0407214
      27.0050      4.81126    0.0414904
      26.5050      4.81539    0.0422927
      26.0050      4.82026    0.0431178
      25.5050      4.82649    0.0440010
      25.0050      4.83580    0.0452199
      24.9550      4.83708    0.0456090
      24.9050      4.83839    0.0461066
      24.8550      4.83980    0.0467342
      24.8050      4.84120    0.0474675
      24.7550      4.84256    0.0483021
      24.7050      4.84388    0.0492295
      24.6550      4.84515    0.0502411
      24.6050      4.84633    0.0513246
      24.5550      4.84738    0.0524716
      24.5050      4.84826    0.0536650
      24.4550      4.84909    0.0548878
      24.4050      4.84979    0.0561246
      24.3550      4.85048    0.0573638
      24.3050      4.85109    0.0585943
      24.2550      4.85166    0.0598044
      24.2050      4.85227    0.0609541
      24.1550      4.85288    0.0620925
      24.1050      4.85349    0.0632297
      24.0550      4.85405    0.0643769
      24.0050      4.85466    0.0655462
      23.9550      4.85518    0.0667467
      23.9050      4.85575    0.0680164
      23.8550      4.85627    0.0693397
      23.8050      4.85674    0.0706923
      23.7550      4.85717    0.0720638
      23.7050      4.85751    0.0734413
      23.6550      4.85781    0.0748106
      23.6050      4.85802    0.0761568
      23.5550      4.85810    0.0774646
      23.5050      4.85813    0.0787275
      23.4550      4.85817    0.0799380
      23.4050      4.85812    0.0810891
      23.3550      4.85811    0.0821801
      23.3050      4.85810    0.0832113
      23.2550      4.85813    0.0841471
      23.2050      4.85826    0.0850471
      23.1550      4.85838    0.0859313
      23.1050      4.85851    0.0868186
      23.0550      4.85868    0.0877301
      23.0050      4.85884    0.0886809
      22.9550      4.85905    0.0897344
      22.9050      4.85922    0.0908471
      22.8550      4.85938    0.0919969
      22.8050      4.85951    0.0931705
      22.7550      4.85963    0.0943534
      22.7050      4.85970    0.0955302
      22.6550      4.85978    0.0966558
      22.6050      4.85977    0.0977449
      22.5550      4.85976    0.0988137
      22.5050      4.85970    0.0998657
      22.4550      4.85965     0.100907
      22.4050      4.85955     0.101943
      22.3550      4.85954     0.102994
      22.3050      4.85948     0.104053
      22.2550      4.85943     0.105115
      22.2050      4.85933     0.106178
      22.1550      4.85923     0.107241
      22.1050      4.85913     0.108300
      22.0550      4.85894     0.109346
      22.0050      4.85875     0.110379
      21.9550      4.85848     0.111396
      21.9050      4.85824     0.112393
      21.8550      4.85792     0.113364
      21.8050      4.85765     0.114306
      21.7550      4.85737     0.115227
      21.7050      4.85710     0.116104
      21.6550      4.85682     0.116922
      21.6050      4.85651     0.117672
      21.5550      4.85623     0.118351
      21.5050      4.85596     0.118953
      21.4550      4.85569     0.119452
      21.4050      4.85547     0.119901
      21.3550      4.85528     0.120324
      21.3050      4.85519     0.120744
      21.2550      4.85523     0.121188
      21.2050      4.85540     0.121688
      21.1550      4.85579     0.122270
      21.1050      4.85622     0.122931
      21.0550      4.85670     0.123679
      21.0050      4.85717     0.124519
      20.9550      4.85764     0.125450
      20.9050      4.85803     0.126471
      20.8550      4.85828     0.127570
      20.8050      4.85848     0.128734
      20.7550      4.85860     0.129947
      20.7050      4.85867     0.131192
      20.6550      4.85870     0.132454
      20.6050      4.85872     0.133724
      20.5550      4.85871     0.134977
      20.5050      4.85869     0.136200
      20.4550      4.85863     0.137384
      20.4050      4.85857     0.138526
      20.3550      4.85851     0.139594
      20.3050      4.85845     0.140626
      20.2550      4.85839     0.141663
      20.2050      4.85838     0.142735
      20.1550      4.85831     0.143867
      20.1050      4.85830     0.145096
      20.0550      4.85828     0.146459
      20.0050      4.85825     0.147901
      19.9550      4.85819     0.149405
      19.9050      4.85803     0.150948
      19.8550      4.85774     0.152501
      19.8050      4.85737     0.154018
      19.7550      4.85690     0.155499
      19.7050      4.85630     0.156929
      19.6550      4.85562     0.158296
      19.6050      4.85485     0.159588
      19.5550      4.85404     0.160800
      19.5050      4.85322     0.161925
      19.4550      4.85237     0.162955
      19.4050      4.85156     0.163891
      19.3550      4.85080     0.164736
      19.3050      4.85008     0.165489
      19.2550      4.84950     0.166164
      19.2050      4.84891     0.166787
      19.1550      4.84842     0.167379
      19.1050      4.84797     0.167962
      19.0550      4.84756     0.168560
      19.0050      4.84720     0.169197
      18.9550      4.84683     0.169861
      18.9050      4.84655     0.170558
      18.8550      4.84632     0.171288
      18.8050      4.84613     0.172048
      18.7550      4.84607     0.172834
      18.7050      4.84602     0.173660
      18.6550      4.84596     0.174532
      18.6050      4.84594     0.175457
      18.5550      4.84583     0.176438
      18.5050      4.84568     0.177484
      18.4550      4.84553     0.178582
      18.4050      4.84533     0.179727
      18.3550      4.84513     0.180913
      18.3050      4.84494     0.182130
      18.2550      4.84474     0.183370
      18.2050      4.84454     0.184646
      18.1550      4.84433     0.185961
      18.1050      4.84404     0.187313
      18.0550      4.84366     0.188713
      18.0050      4.84324     0.190153
      17.9550      4.84273     0.191604
      17.9050      4.84213     0.193047
      17.8550      4.84148     0.194470
      17.8050      4.84079     0.195843
      17.7550      4.84010     0.197176
      17.7050      4.83933     0.198482
      17.6550      4.83860     0.199773
      17.6050      4.83782     0.201061
      17.5550      4.83700     0.202356
      17.5050      4.83623     0.203668
      17.4550      4.83536     0.204999
      17.4050      4.83446     0.206348
      17.3550      4.83341     0.207713
      17.3050      4.83233     0.209096
      17.2550      4.83116     0.210436
      17.2050      4.82985     0.211696
      17.1550      4.82851     0.212847
      17.1050      4.82708     0.213838
      17.0550      4.82561     0.214672
      17.0050      4.82414     0.215370
      16.9550      4.82277     0.215950
      16.9050      4.82144     0.216436
      16.8550      4.82029     0.216858
      16.8050      4.81918     0.217237
      16.7550      4.81820     0.217600
      16.7050      4.81723     0.217967
      16.6550      4.81625     0.218367
      16.6050      4.81528     0.218802
      16.5550      4.81434     0.219261
      16.5050      4.81341     0.219738
      16.4550      4.81257     0.220219
      16.4050      4.81185     0.220676
      16.3550      4.81110     0.221143
      16.3050      4.81029     0.221625
      16.2550      4.80945     0.222122
      16.2050      4.80847     0.222681
      16.1550      4.80741     0.223216
      16.1050      4.80634     0.223660
      16.0550      4.80524     0.223968
      16.0050      4.80427     0.224061
      15.9550      4.80339     0.223956
      15.9050      4.80265     0.223793
      15.8550      4.80209     0.223654
      15.8050      4.80169     0.223639
      15.7550      4.80142     0.223853
      15.7050      4.80120     0.224189
      15.6550      4.80101     0.224610
      15.6050      4.80074     0.225062
      15.5550      4.80025     0.225468
      15.5050      4.79975     0.225843
      15.4550      4.79926     0.226181
      15.4050      4.79886     0.226494
      15.3550      4.79872     0.226739
      15.3050      4.79867     0.227046
      15.2550      4.79866     0.227504
      15.2050      4.79856     0.228161
      15.1550      4.79827     0.229176
      15.1050      4.79781     0.230334
      15.0550      4.79717     0.231433
      15.0050      4.79644     0.232319
      14.9550      4.79569     0.232721
      14.9050      4.79490     0.232761
      14.8550      4.79424     0.232599
      14.8050      4.79377     0.232365
      14.7550      4.79355     0.232306
      14.7050      4.79359     0.232387
      14.6550      4.79389     0.232576
      14.6050      4.79441     0.232872
      14.5550      4.79511     0.233186
      14.5050      4.79593     0.233665
      14.4550      4.79679     0.234418
      14.4050      4.79768     0.235520
      14.3550      4.79852     0.237101
      14.3050      4.79922     0.239032
      14.2550      4.79973     0.241230
      14.2050      4.79989     0.243585
      14.1550      4.79974     0.245968
      14.1050      4.79929     0.248343
      14.0550      4.79852     0.250649
      14.0050      4.79763     0.252849
      13.9550      4.79657     0.254912
      13.9050      4.79542     0.256821
      13.8550      4.79424     0.258579
      13.8050      4.79301     0.260209
      13.7550      4.79174     0.261746
      13.7050      4.79056     0.263245
      13.6550      4.78947     0.264767
      13.6050      4.78846     0.266329
      13.5550      4.78745     0.268067
      13.5050      4.78634     0.270050
      13.4550      4.78496     0.272331
      13.4050      4.78322     0.274875
      13.3550      4.78105     0.277428
      13.3050      4.77835     0.279782
      13.2550      4.77510     0.281685
      13.2050      4.77143     0.283040
      13.1550      4.76765     0.283803
      13.1050      4.76388     0.283949
      13.0550      4.76040     0.283501
      13.0050      4.75719     0.282589
      12.9550      4.75422     0.281323
      12.9050      4.75147     0.279895
      12.8550      4.74902     0.278284
      12.8050      4.74703     0.276465
      12.7550      4.74556     0.274412
      12.7050      4.74458     0.272162
      12.6550      4.74403     0.270046
      12.6050      4.74373     0.268263
      12.5550      4.74363     0.267067
      12.5050      4.74348     0.266283
      12.4550      4.74323     0.265736
      12.4050      4.74268     0.265200
      12.3550      4.74192     0.264451
      12.3050      4.74099     0.263292
      12.2550      4.74003     0.261575
      12.2050      4.73918     0.259251
      12.1550      4.73895     0.256508
      12.1050      4.73951     0.253560
      12.0550      4.74125     0.250644
      12.0050      4.74380     0.248103
      11.9550      4.74681     0.246197
      11.9050      4.74998     0.245204
      11.8550      4.75308     0.244979
      11.8050      4.75604     0.245300
      11.7550      4.75887     0.245885
      11.7050      4.76147     0.246615
      11.6550      4.76398     0.247480
      11.6050      4.76649     0.248470
      11.5550      4.76899     0.249606
      11.5050      4.77150     0.250926
      11.4550      4.77395     0.252477
      11.4050      4.77631     0.254249
      11.3550      4.77862     0.256136
      11.3050      4.78089     0.258049
      11.2550      4.78316     0.259950
      11.2050      4.78547     0.261926
      11.1550      4.78791     0.264059
      11.1050      4.79047     0.266414
      11.0550      4.79316     0.268993
      11.0050      4.79593     0.271817
      10.9550      4.79874     0.274914
      10.9050      4.80162     0.278337
      10.8550      4.80463     0.282129
      10.8050      4.80762     0.286375
      10.7550      4.81059     0.291206
      10.7050      4.81337     0.296692
      10.6550      4.81573     0.302764
      10.6050      4.81755     0.309234
      10.5550      4.81865     0.315926
      10.5050      4.81922     0.322525
      10.4550      4.81954     0.328791
      10.4050      4.81986     0.334639
      10.3550      4.82076     0.340439
      10.3050      4.82243     0.346732
      10.2550      4.82485     0.354107
      10.2050      4.82731     0.363708
      10.1550      4.82890     0.376221
      10.1050      4.82825     0.391447
      10.0550      4.82369     0.407937
      10.0050      4.81388     0.424100
      9.95500      4.79996     0.437524
      9.90500      4.78401     0.446111
      9.85500      4.76848     0.448192
      9.80500      4.75481     0.446435
      9.75500      4.74415     0.443588
      9.70500      4.73655     0.441539
      9.65500      4.73103     0.440087
      9.60500      4.72620     0.438824
      9.55500      4.72161     0.438215
      9.50500      4.71714     0.438657
      9.45500      4.71263     0.440142
      9.40500      4.70750     0.441727
      9.35500      4.70133     0.442604
      9.30500      4.69498     0.442471
      9.25500      4.68960     0.441419
      9.20500      4.68593     0.439896
      9.15500      4.68284     0.439290
      9.10500      4.67934     0.440780
      9.05500      4.67459     0.443008
      9.00500      4.66830     0.443877
      8.95500      4.66101     0.442270
      8.90500      4.65474     0.439229
      8.85500      4.65148     0.435933
      8.80500      4.64970     0.433163
      8.75500      4.64757     0.431556
      8.70500      4.64468     0.430529
      8.65500      4.64191     0.428721
      8.60500      4.64011     0.425478
      8.55500      4.63983     0.422159
      8.50500      4.64139     0.420275
      8.45500      4.64416     0.420169
      8.40500      4.64706     0.421956
      8.35500      4.64943     0.425890
      8.30500      4.65092     0.432052
      8.25500      4.65055     0.440040
      8.20500      4.64649     0.449002
      8.15500      4.63825     0.457392
      8.10500      4.62790     0.462315
      8.05500      4.61774     0.461826
      8.00500      4.60968     0.458239
      7.95500      4.60487     0.454382
      7.90500      4.60238     0.451560
      7.85500      4.60059     0.450305
      7.80500      4.59875     0.450086
      7.75500      4.59687     0.449865
      7.70500      4.59525     0.449455
      7.65500      4.59456     0.449533
      7.60500      4.59530     0.450335
      7.55500      4.59737     0.451887
      7.50500      4.60032     0.456664
      7.45500      4.60350     0.467969
      7.40500      4.60102     0.485132
      7.35500      4.58430     0.503919
      7.30500      4.55837     0.513762
      7.25500      4.53856     0.502387
      7.20500      4.53142     0.479355
      7.15500      4.53372     0.468834
      7.10500      4.54186     0.475253
      7.05500      4.55131     0.487700
      7.00500      4.54664     0.505797
      6.95500      4.51480     0.530655
      6.90500      4.47172     0.535600
      6.85500      4.44138     0.499020
      6.80500      4.43766     0.453685
      6.75500      4.46040     0.430661
      6.70500      4.48421     0.428806
      6.65500      4.49373     0.439509
      6.60500      4.49610     0.451853
      6.55500      4.49544     0.460674
      6.50500      4.49133     0.467881
      6.45500      4.48629     0.474723
      6.40500      4.48207     0.482090
      6.35500      4.47523     0.491374
      6.30500      4.46485     0.500923
      6.25500      4.45436     0.506278
      6.20500      4.44604     0.511633
      6.15500      4.43856     0.525218
      6.10500      4.42405     0.547473
      6.05500      4.39378     0.573790
      6.00500      4.34365     0.595405
      5.95500      4.27560     0.594572
      5.90500      4.20250     0.557839
      5.85500      4.15279     0.490010
      5.80500      4.13699     0.410831
      5.75500      4.14595     0.344030
      5.70500      4.16876     0.290247
      5.65500      4.19873     0.247627
      5.60500      4.23534     0.218788
      5.55500      4.27192     0.203967
      5.50500      4.30264     0.199990
      5.45500      4.32619     0.200793
      5.40500      4.34403     0.202621
      5.35500      4.35869     0.204071
      5.30500      4.37200     0.205510
      5.25500      4.38346     0.208148
      5.20500      4.39248     0.211198
      5.15500      4.39958     0.212878
      5.10500      4.40638     0.213089
      5.05500      4.41391     0.212593
      5.00500      4.42233     0.212461
      4.95500      4.43127     0.213539
      4.90500      4.44006     0.216238
      4.85500      4.44768     0.220371
      4.80500      4.45373     0.225011
      4.75500      4.45857     0.229169
      4.70500      4.46296     0.232912
      4.65500      4.46705     0.236627
      4.60500      4.47063     0.240262
      4.55500      4.47385     0.243523
      4.50500      4.47703     0.246372
      4.45500      4.48048     0.248968
      4.40500      4.48443     0.251756
      4.35500      4.48853     0.255117
      4.30500      4.49237     0.258970
      4.25500      4.49594     0.263036
      4.20500      4.49947     0.267271
      4.15500      4.50290     0.271776
      4.10500      4.50615     0.276715
      4.05500      4.50875     0.282084
      4.00500      4.51044     0.286679
      3.95500      4.51294     0.289467
      3.90500      4.51817     0.292315
      3.85500      4.52524     0.297765
      3.80500      4.53203     0.306188
      3.75500      4.53709     0.316611
      3.70500      4.54048     0.325915
      3.65500      4.54800     0.333027
      3.60500      4.56363     0.348431
      3.55500      4.57490     0.383993
      3.50500      4.56184     0.430800
      3.45500      4.52132     0.464821
      3.40500      4.46797     0.465868
      3.35500      4.43568     0.430648
      3.30500      4.44400     0.396249
      3.25500      4.46796     0.394431
      3.20500      4.47624     0.414061
      3.15500      4.46898     0.431324
      3.10500      4.45731     0.443682
      3.05500      4.43980     0.454924
      3.00500      4.41359     0.456046
      2.95500      4.39283     0.438479
      2.90500      4.39136     0.416801
      2.85500      4.39940     0.407688
      2.80500      4.40380     0.406277
      2.75500      4.40659     0.403196
      2.70500      4.41373     0.401044
      2.65500      4.42205     0.405390
      2.60500      4.42612     0.413276
      2.55500      4.42797     0.419621
      2.50500      4.43126     0.426023
      2.45500      4.43446     0.435766
      2.40500      4.43465     0.447350
      2.35500      4.43255     0.457774
      2.30500      4.43049     0.467322
      2.25500      4.42856     0.477454
      2.20500      4.42602     0.488297
      2.15500      4.42286     0.499541
      2.10500      4.41920     0.511211
      2.05500      4.41502     0.523456
      2.00500      4.41015     0.536280
      1.95500      4.40456     0.549698
      1.90500      4.39818     0.563803
      1.85500      4.39081     0.578692
      1.80500      4.38210     0.594169
      1.75500      4.37246     0.610103
      1.70500      4.36170     0.627629
      1.65500      4.34692     0.647485
      1.60500      4.32549     0.664962
      1.55500      4.30229     0.674421
      1.50500      4.28394     0.680151
      1.45500      4.25947     0.690303
      1.40500      4.26473     0.679818
      1.35500      4.25971     0.698743
      1.30500      4.24899     0.718949
      1.25500      4.23502     0.739691
      1.20500      4.21858     0.761039
      1.15500      4.19979     0.783056
      1.10500      4.17882     0.805828
      1.05500      4.15553     0.829409
      1.00500      4.12985     0.853871
      1.00000      4.12712     0.856369
     0.995000      4.12438     0.858874
     0.990000      4.12160     0.861389
     0.985000      4.11883     0.863915
     0.980000      4.11601     0.866451
     0.975000      4.11314     0.868998
     0.970000      4.11028     0.871555
     0.965000      4.10737     0.874122
     0.960000      4.10446     0.876700
     0.955000      4.10151     0.879284
     0.950000      4.09852     0.881878
     0.945000      4.09548     0.884486
     0.940000      4.09244     0.887104
     0.935000      4.08936     0.889733
     0.930000      4.08628     0.892372
     0.925000      4.08315     0.895024
     0.920000      4.07999     0.897687
     0.915000      4.07678     0.900355
     0.910000      4.07356     0.903041
     0.905000      4.07027     0.905733
     0.900000      4.06697     0.908434
     0.895000      4.06367     0.911150
     0.890000      4.06033     0.913879
     0.885000      4.05695     0.916622
     0.880000      4.05352     0.919374
     0.875000      4.05005     0.922136
     0.870000      4.04654     0.924911
     0.865000      4.04303     0.927699
     0.860000      4.03947     0.930493
     0.855000      4.03588     0.933304
     0.850000      4.03228     0.936132
     0.845000      4.02859     0.938965
     0.840000      4.02487     0.941807
     0.835000      4.02114     0.944670
     0.830000      4.01741     0.947551
     0.825000      4.01360     0.950440
     0.820000      4.00974     0.953338
     0.815000      4.00584     0.956252
     0.810000      4.00190     0.959175
     0.805000      3.99796     0.962114
     0.800000      3.99393     0.965066
     0.795000      3.98990     0.968035
     0.790000      3.98579     0.971011
     0.785000      3.98168     0.974008
     0.780000      3.97748     0.977012
     0.775000      3.97329     0.980037
     0.770000      3.96900     0.983073
     0.765000      3.96468     0.986121
     0.760000      3.96031     0.989181
     0.755000      3.95591     0.992260
     0.750000      3.95149     0.995356
     0.745000      3.94700     0.998466
     0.740000      3.94246      1.00159
     0.735000      3.93788      1.00473
     0.730000      3.93322      1.00788
     0.725000      3.92856      1.01105
     0.720000      3.92385      1.01424
     0.715000      3.91906      1.01745
     0.710000      3.91422      1.02066
     0.705000      3.90931      1.02389
     0.700000      3.90439      1.02714
     0.695000      3.89939      1.03041
     0.690000      3.89434      1.03370
     0.685000      3.88926      1.03700
     0.680000      3.88409      1.04031
     0.675000      3.87888      1.04365
     0.670000      3.87358      1.04700
     0.665000      3.86824      1.05037
     0.660000      3.86282      1.05375
     0.655000      3.85740      1.05716
     0.650000      3.85190      1.06059
     0.645000      3.84631      1.06403
     0.640000      3.84064      1.06748
     0.635000      3.83493      1.07096
     0.630000      3.82917      1.07446
     0.625000      3.82333      1.07798
     0.620000      3.81741      1.08152
     0.615000      3.81141      1.08507
     0.610000      3.80536      1.08864
     0.605000      3.79927      1.09224
     0.600000      3.79302      1.09585
     0.595000      3.78676      1.09949
     0.590000      3.78039      1.10314
     0.585000      3.77397      1.10682
     0.580000      3.76751      1.11052
     0.575000      3.76092      1.11424
     0.570000      3.75422      1.11798
     0.565000      3.74747      1.12174
     0.560000      3.74064      1.12553
     0.555000      3.73373      1.12933
     0.550000      3.72669      1.13316
     0.545000      3.71962      1.13701
     0.540000      3.71242      1.14089
     0.535000      3.70514      1.14479
     0.530000      3.69777      1.14871
     0.525000      3.69029      1.15266
     0.520000      3.68272      1.15663
     0.515000      3.67507      1.16063
     0.510000      3.66727      1.16464
     0.505000      3.65941      1.16869
     0.500000      3.65144      1.17277
     0.495000      3.64331      1.17686
     0.490000      3.63513      1.18099
     0.485000      3.62680      1.18513
     0.480000      3.61834      1.18930
     0.475000      3.60980      1.19352
     0.470000      3.60114      1.19775
     0.465000      3.59236      1.20201
     0.460000      3.58342      1.20629
     0.455000      3.57436      1.21061
     0.450000      3.56518      1.21495
     0.445000      3.55588      1.21933
     0.440000      3.54642      1.22373
     0.435000      3.53680      1.22816
     0.430000      3.52706      1.23262
     0.425000      3.51717      1.23712
     0.420000      3.50715      1.24165
     0.415000      3.49693      1.24620
     0.410000      3.48656      1.25079
     0.405000      3.47607      1.25542
     0.400000      3.46538      1.26007
     0.395000      3.45450      1.26476
     0.390000      3.44349      1.26949
     0.385000      3.43229      1.27424
     0.380000      3.42090      1.27904
     0.375000      3.40931      1.28387
     0.370000      3.39752      1.28873
     0.365000      3.38558      1.29364
     0.360000      3.37337      1.29857
     0.355000      3.36100      1.30355
     0.350000      3.34839      1.30857
     0.345000      3.33560      1.31363
     0.340000      3.32253      1.31871
     0.335000      3.30923      1.32385
     0.330000      3.29574      1.32903
     0.325000      3.28198      1.33425
     0.320000      3.26799      1.33951
     0.315000      3.25374      1.34482
     0.310000      3.23921      1.35017
     0.305000      3.22442      1.35557
     0.300000      3.20933      1.36100
     0.295000      3.19396      1.36650
     0.290000      3.17834      1.37203
     0.285000      3.16233      1.37762
     0.280000      3.14610      1.38327
     0.275000      3.12952      1.38896
     0.270000      3.11261      1.39471
     0.265000      3.09536      1.40052
     0.260000      3.07781      1.40639
     0.255000      3.05989      1.41231
     0.250000      3.04163      1.41831
     0.245000      3.02299      1.42437
     0.240000      3.00402      1.43051
     0.235000      2.98463      1.43671
     0.230000      2.96491      1.44300
     0.225000      2.94482      1.44938
     0.220000      2.92442      1.45586
     0.215000      2.90361      1.46244
     0.210000      2.88250      1.46914
     0.205000      2.86107      1.47597
     0.200000      2.83937      1.48295
     0.195000      2.81743      1.49010
     0.190000      2.79531      1.49745
     0.185000      2.77321      1.50506
     0.180000      2.75113      1.51294
     0.175000      2.72936      1.52120
     0.170000      2.70817      1.52992
     0.165000      2.68799      1.53925
     0.160000      2.66951      1.54940
     0.155000      2.65383      1.56072
     0.150000      2.64286      1.57380
     0.145000      2.64021      1.58970
     0.140000      2.65459      1.61147
     0.135000      2.72060      1.63642
     0.130000      2.78125      1.94504
     0.125000      2.52378      2.13181
     0.120000      2.30659      2.15316
     0.115000      2.18505      2.09400
     0.110000      2.08519      2.15870
     0.105000      1.92585      2.12655
     0.100000      1.82494      2.18933
    0.0990000      1.79142      2.19254
    0.0980000      1.75962      2.19824
    0.0970000      1.72260      2.20557
    0.0960000      1.68126      2.20582
    0.0950000      1.64473      2.19780
    0.0940000      1.61627      2.18998
    0.0930000      1.59033      2.18804
    0.0920000      1.56155      2.18848
    0.0910000      1.53388      2.18631
    0.0900000      1.51279      2.18649
    0.0890000      1.49428      2.19904
    0.0880000      1.46487      2.22637
    0.0870000      1.41380      2.25660
    0.0860000      1.34548      2.27183
    0.0850000      1.27731      2.26509
    0.0840000      1.22277      2.24775
    0.0830000      1.17835      2.23526
    0.0820000      1.13231      2.23087
    0.0810000      1.07931      2.22727
    0.0800000      1.02323      2.21892
    0.0790000     0.968322      2.20812
    0.0780000     0.912572      2.19955
    0.0770000     0.850442      2.19295
    0.0760000     0.779737      2.18321
    0.0750000     0.702925      2.16661
    0.0740000     0.621433      2.14393
    0.0730000     0.531937      2.11468
    0.0720000     0.432089      2.07166
    0.0710000     0.327673      2.00473
    0.0700000     0.232231      1.90988
    0.0690000     0.158904      1.79348
    0.0680000     0.113838      1.66759
    0.0670000    0.0959296      1.54478
    0.0660000    0.0982692      1.43443
    0.0650000     0.111042      1.34050
    0.0640000     0.124766      1.26101
    0.0630000     0.133906      1.18888
    0.0620000     0.139490      1.11514
    0.0610000     0.149928      1.03446
    0.0600000     0.175419     0.951491
    0.0590000     0.218091     0.879068
    0.0580000     0.267326     0.828826
    0.0570000     0.305836     0.799903
    0.0560000     0.322450     0.775685
    0.0550000     0.327579     0.734992
    0.0540000     0.344837     0.678138
    0.0530000     0.381414     0.625757
    0.0520000     0.424011     0.590986
    0.0510000     0.458829     0.568845
    0.0500000     0.485145     0.547059
    0.0490000     0.512177     0.521770
    0.0480000     0.544798     0.500810
    0.0470000     0.575635     0.491806
    0.0460000     0.593158     0.489003
    0.0450000     0.599984     0.475570
    0.0440000     0.616015     0.448243
    0.0430000     0.651135     0.427413
    0.0420000     0.690354     0.432645
    0.0410000     0.706428     0.459912
    0.0400000     0.691917     0.478369
    0.0390000     0.673118     0.474202
    0.0380000     0.653890     0.463761
    0.0370000     0.638149     0.438292
    0.0360000     0.634737     0.413185
    0.0350000     0.623391     0.391281
    0.0340000     0.626059     0.354814
    0.0330000     0.626729     0.339040
    0.0320000     0.619011     0.306868
    0.0310000     0.629211     0.278677
    0.0300000     0.603677     0.260907
    0.0290000     0.601210     0.176695
    0.0280000     0.655704     0.117361
    0.0270000     0.720276     0.101226
    0.0260000     0.769050     0.131480
    0.0250000     0.721704     0.176261
    0.0240000     0.694937    0.0909718
    0.0230000     0.738822    0.0451232
    0.0220000     0.777663    0.0277342
    0.0210000     0.808450    0.0192257
    0.0200000     0.833816    0.0141761
    0.0190000     0.855389    0.0108013
    0.0180000     0.874156   0.00837153
    0.0170000     0.890714   0.00654212
    0.0160000     0.905467   0.00512345
    0.0150000     0.918687   0.00400412
    0.0140000     0.930601   0.00311116
    0.0130000     0.941358   0.00239497
    0.0120000     0.951320   0.00184321
    0.0110000     0.960583   0.00207894
   0.01000000     0.967832   0.00435330
